#K-Path(1/A) Energy-Level(eV)
   0.00000    -56.114078
   0.03972    -56.113976
   0.07944    -56.113674
   0.11915    -56.113180
   0.15887    -56.112505
   0.19859    -56.111704
   0.23831    -56.110780
   0.27803    -56.109749
   0.31774    -56.108633
   0.35746    -56.107465
   0.39718    -56.106275
   0.43690    -56.105096
   0.47662    -56.103960
   0.51633    -56.102897
   0.55605    -56.101940
   0.59577    -56.101118
   0.63549    -56.100450
   0.67520    -56.099959
   0.71492    -56.099656
   0.75464    -56.099556
   0.75464    -56.099556
   0.79436    -56.099541
   0.83408    -56.099502
   0.87379    -56.099436
   0.91351    -56.099347
   0.95323    -56.099235
   0.99295    -56.099105
   1.03267    -56.098960
   1.07238    -56.098804
   1.11210    -56.098640
   1.15182    -56.098476
   1.19154    -56.098314
   1.23126    -56.098158
   1.27097    -56.098014
   1.31069    -56.097885
   1.35041    -56.097772
   1.39013    -56.097705
   1.42985    -56.097667
   1.46957    -56.097644
   1.50928    -56.097636
   1.50928    -56.097636
   1.54900    -56.097650
   1.58872    -56.097690
   1.62844    -56.097757
   1.66815    -56.097847
   1.70787    -56.097959
   1.74759    -56.098088
   1.78731    -56.098233
   1.82703    -56.098389
   1.86674    -56.098551
   1.90646    -56.098715
   1.94618    -56.098879
   1.98590    -56.099035
   2.02562    -56.099180
   2.06533    -56.099311
   2.10505    -56.099422
   2.14477    -56.099511
   2.18449    -56.099577
   2.22421    -56.099616
   2.26392    -56.099631
   2.26392    -56.099631
   2.30364    -56.099732
   2.34336    -56.100035
   2.38308    -56.100527
   2.42280    -56.101196
   2.46251    -56.102020
   2.50223    -56.102979
   2.54195    -56.104043
   2.58167    -56.105181
   2.62139    -56.106362
   2.66110    -56.107555
   2.70082    -56.108725
   2.74054    -56.109842
   2.78026    -56.110875
   2.81998    -56.111801
   2.85969    -56.112592
   2.89941    -56.113229
   2.93913    -56.113697
   2.97885    -56.113982
   3.01857    -56.114078
 
# Band-Index:    2
   3.01857    -56.113977
   2.97885    -56.113875
   2.93913    -56.113574
   2.89941    -56.113080
   2.85969    -56.112406
   2.81998    -56.111569
   2.78026    -56.110590
   2.74054    -56.109497
   2.70082    -56.108314
   2.66110    -56.107075
   2.62139    -56.105812
   2.58167    -56.104560
   2.54195    -56.103354
   2.50223    -56.102226
   2.46251    -56.101210
   2.42280    -56.100335
   2.38308    -56.099625
   2.34336    -56.099103
   2.30364    -56.098781
   2.26392    -56.098674
   2.26392    -56.098674
   2.22421    -56.098665
   2.18449    -56.098644
   2.14477    -56.098607
   2.10505    -56.098558
   2.06533    -56.098496
   2.02562    -56.098424
   1.98590    -56.098343
   1.94618    -56.098256
   1.90646    -56.098165
   1.86674    -56.098074
   1.82703    -56.097983
   1.78731    -56.097895
   1.74759    -56.097815
   1.70787    -56.097743
   1.66815    -56.097680
   1.62844    -56.097630
   1.58872    -56.097593
   1.54900    -56.097570
   1.50928    -56.097562
   1.50928    -56.097562
   1.46957    -56.097576
   1.42985    -56.097616
   1.39013    -56.097682
   1.35041    -56.097755
   1.31069    -56.097818
   1.27097    -56.097889
   1.23126    -56.097970
   1.19154    -56.098057
   1.15182    -56.098148
   1.11210    -56.098239
   1.07238    -56.098331
   1.03267    -56.098418
   0.99295    -56.098498
   0.95323    -56.098571
   0.91351    -56.098633
   0.87379    -56.098682
   0.83408    -56.098719
   0.79436    -56.098740
   0.75464    -56.098748
   0.75464    -56.098748
   0.71492    -56.098856
   0.67520    -56.099179
   0.63549    -56.099701
   0.59577    -56.100413
   0.55605    -56.101289
   0.51633    -56.102307
   0.47662    -56.103437
   0.43690    -56.104645
   0.39718    -56.105899
   0.35746    -56.107165
   0.31774    -56.108406
   0.27803    -56.109590
   0.23831    -56.110685
   0.19859    -56.111666
   0.15887    -56.112494
   0.11915    -56.113130
   0.07944    -56.113596
   0.03972    -56.113881
   0.00000    -56.113977
 
# Band-Index:    3
   0.00000    -55.648805
   0.03972    -55.648896
   0.07944    -55.649168
   0.11915    -55.649613
   0.15887    -55.650223
   0.19859    -55.650981
   0.23831    -55.651867
   0.27803    -55.652861
   0.31774    -55.653934
   0.35746    -55.655058
   0.39718    -55.656205
   0.43690    -55.657343
   0.47662    -55.658441
   0.51633    -55.659466
   0.55605    -55.660390
   0.59577    -55.661189
   0.63549    -55.661835
   0.67520    -55.662311
   0.71492    -55.662601
   0.75464    -55.662700
   0.75464    -55.662700
   0.79436    -55.662685
   0.83408    -55.662643
   0.87379    -55.662574
   0.91351    -55.662480
   0.95323    -55.662363
   0.99295    -55.662227
   1.03267    -55.662075
   1.07238    -55.661911
   1.11210    -55.661739
   1.15182    -55.661568
   1.19154    -55.661397
   1.23126    -55.661234
   1.27097    -55.661082
   1.31069    -55.660947
   1.35041    -55.660829
   1.39013    -55.660735
   1.42985    -55.660665
   1.46957    -55.660623
   1.50928    -55.660608
   1.50928    -55.660608
   1.54900    -55.660617
   1.58872    -55.660640
   1.62844    -55.660678
   1.66815    -55.660750
   1.70787    -55.660868
   1.74759    -55.661003
   1.78731    -55.661155
   1.82703    -55.661318
   1.86674    -55.661488
   1.90646    -55.661660
   1.94618    -55.661831
   1.98590    -55.661995
   2.02562    -55.662147
   2.06533    -55.662283
   2.10505    -55.662400
   2.14477    -55.662494
   2.18449    -55.662563
   2.22421    -55.662605
   2.26392    -55.662620
   2.26392    -55.662620
   2.30364    -55.662521
   2.34336    -55.662232
   2.38308    -55.661756
   2.42280    -55.661112
   2.46251    -55.660315
   2.50223    -55.659393
   2.54195    -55.658370
   2.58167    -55.657275
   2.62139    -55.656139
   2.66110    -55.654994
   2.70082    -55.653872
   2.74054    -55.652801
   2.78026    -55.651809
   2.81998    -55.650924
   2.85969    -55.650169
   2.89941    -55.649560
   2.93913    -55.649144
   2.97885    -55.648890
   3.01857    -55.648805
 
# Band-Index:    4
   3.01857    -55.648753
   2.97885    -55.648844
   2.93913    -55.649115
   2.89941    -55.649559
   2.85969    -55.650128
   2.81998    -55.650834
   2.78026    -55.651659
   2.74054    -55.652585
   2.70082    -55.653585
   2.66110    -55.654632
   2.62139    -55.655700
   2.58167    -55.656759
   2.54195    -55.657780
   2.50223    -55.658734
   2.46251    -55.659594
   2.42280    -55.660336
   2.38308    -55.660935
   2.34336    -55.661378
   2.30364    -55.661648
   2.26392    -55.661739
   2.26392    -55.661739
   2.22421    -55.661730
   2.18449    -55.661709
   2.14477    -55.661671
   2.10505    -55.661621
   2.06533    -55.661558
   2.02562    -55.661484
   1.98590    -55.661402
   1.94618    -55.661314
   1.90646    -55.661221
   1.86674    -55.661129
   1.82703    -55.661037
   1.78731    -55.660947
   1.74759    -55.660866
   1.70787    -55.660793
   1.66815    -55.660729
   1.62844    -55.660656
   1.58872    -55.660586
   1.54900    -55.660544
   1.50928    -55.660529
   1.50928    -55.660529
   1.46957    -55.660538
   1.42985    -55.660561
   1.39013    -55.660599
   1.35041    -55.660650
   1.31069    -55.660714
   1.27097    -55.660787
   1.23126    -55.660868
   1.19154    -55.660957
   1.15182    -55.661050
   1.11210    -55.661142
   1.07238    -55.661234
   1.03267    -55.661323
   0.99295    -55.661405
   0.95323    -55.661478
   0.91351    -55.661541
   0.87379    -55.661592
   0.83408    -55.661630
   0.79436    -55.661651
   0.75464    -55.661659
   0.75464    -55.661659
   0.71492    -55.661568
   0.67520    -55.661300
   0.63549    -55.660858
   0.59577    -55.660260
   0.55605    -55.659519
   0.51633    -55.658661
   0.47662    -55.657709
   0.43690    -55.656690
   0.39718    -55.655633
   0.35746    -55.654568
   0.31774    -55.653523
   0.27803    -55.652526
   0.23831    -55.651602
   0.19859    -55.650778
   0.15887    -55.650073
   0.11915    -55.649506
   0.07944    -55.649091
   0.03972    -55.648838
   0.00000    -55.648753
 
# Band-Index:    5
   0.00000    -33.589123
   0.03972    -33.588870
   0.07944    -33.587909
   0.11915    -33.586143
   0.15887    -33.583588
   0.19859    -33.580266
   0.23831    -33.576210
   0.27803    -33.571469
   0.31774    -33.566088
   0.35746    -33.560133
   0.39718    -33.553684
   0.43690    -33.546842
   0.47662    -33.539732
   0.51633    -33.532523
   0.55605    -33.525431
   0.59577    -33.518744
   0.63549    -33.512812
   0.67520    -33.508078
   0.71492    -33.504986
   0.75464    -33.503909
   0.75464    -33.503909
   0.79436    -33.505359
   0.83408    -33.509651
   0.87379    -33.516494
   0.91351    -33.525500
   0.95323    -33.536231
   0.99295    -33.548252
   1.03267    -33.561147
   1.07238    -33.574527
   1.11210    -33.588022
   1.15182    -33.601297
   1.19154    -33.614026
   1.23126    -33.625915
   1.27097    -33.636699
   1.31069    -33.646134
   1.35041    -33.654009
   1.39013    -33.660148
   1.42985    -33.664413
   1.46957    -33.666713
   1.50928    -33.667157
   1.50928    -33.667157
   1.54900    -33.666685
   1.58872    -33.664353
   1.62844    -33.660057
   1.66815    -33.653888
   1.70787    -33.645986
   1.74759    -33.636526
   1.78731    -33.625720
   1.82703    -33.613812
   1.86674    -33.601066
   1.90646    -33.587779
   1.94618    -33.574272
   1.98590    -33.560884
   2.02562    -33.547982
   2.06533    -33.535955
   2.10505    -33.525218
   2.14477    -33.516206
   2.18449    -33.509354
   2.22421    -33.505053
   2.26392    -33.503592
   2.26392    -33.503592
   2.30364    -33.504673
   2.34336    -33.507763
   2.38308    -33.512491
   2.42280    -33.518413
   2.46251    -33.525090
   2.50223    -33.532172
   2.54195    -33.539373
   2.58167    -33.546477
   2.62139    -33.553317
   2.66110    -33.559767
   2.70082    -33.565730
   2.74054    -33.571125
   2.78026    -33.575888
   2.81998    -33.579975
   2.85969    -33.583339
   2.89941    -33.585948
   2.93913    -33.587779
   2.97885    -33.588816
   3.01857    -33.589123
 
# Band-Index:    6
   3.01857    -33.588535
   2.97885    -33.587979
   2.93913    -33.586412
   2.89941    -33.583909
   2.85969    -33.580494
   2.81998    -33.576173
   2.78026    -33.570960
   2.74054    -33.564878
   2.70082    -33.557952
   2.66110    -33.550221
   2.62139    -33.541737
   2.58167    -33.532562
   2.54195    -33.522772
   2.50223    -33.512474
   2.46251    -33.501811
   2.42280    -33.491001
   2.38308    -33.480389
   2.34336    -33.470658
   2.30364    -33.463146
   2.26392    -33.460136
   2.26392    -33.460136
   2.22421    -33.462990
   2.18449    -33.470665
   2.14477    -33.481532
   2.10505    -33.494437
   2.06533    -33.508679
   2.02562    -33.523792
   1.98590    -33.539414
   1.94618    -33.555228
   1.90646    -33.570928
   1.86674    -33.586235
   1.82703    -33.600868
   1.78731    -33.614561
   1.74759    -33.627076
   1.70787    -33.638183
   1.66815    -33.647687
   1.62844    -33.655420
   1.58872    -33.661252
   1.54900    -33.665081
   1.50928    -33.666677
   1.50928    -33.666677
   1.46957    -33.665045
   1.42985    -33.661175
   1.39013    -33.655304
   1.35041    -33.647532
   1.31069    -33.637994
   1.27097    -33.626854
   1.23126    -33.614311
   1.19154    -33.600592
   1.15182    -33.585938
   1.11210    -33.570613
   1.07238    -33.554898
   1.03267    -33.539075
   0.99295    -33.523446
   0.95323    -33.508329
   0.91351    -33.494086
   0.87379    -33.481183
   0.83408    -33.470322
   0.79436    -33.462661
   0.75464    -33.459830
   0.75464    -33.459830
   0.71492    -33.462818
   0.67520    -33.470307
   0.63549    -33.480018
   0.59577    -33.490611
   0.55605    -33.501406
   0.51633    -33.512058
   0.47662    -33.522348
   0.43690    -33.532134
   0.39718    -33.541309
   0.35746    -33.549799
   0.31774    -33.557541
   0.27803    -33.564487
   0.23831    -33.570596
   0.19859    -33.575848
   0.15887    -33.580217
   0.11915    -33.583692
   0.07944    -33.586267
   0.03972    -33.587917
   0.00000    -33.588535
 
# Band-Index:    7
   0.00000    -33.261260
   0.03972    -33.262762
   0.07944    -33.265347
   0.11915    -33.268988
   0.15887    -33.273645
   0.19859    -33.279275
   0.23831    -33.285825
   0.27803    -33.293244
   0.31774    -33.301454
   0.35746    -33.310391
   0.39718    -33.319969
   0.43690    -33.330101
   0.47662    -33.340698
   0.51633    -33.351638
   0.55605    -33.362795
   0.59577    -33.373974
   0.63549    -33.384835
   0.67520    -33.394729
   0.71492    -33.402314
   0.75464    -33.405337
   0.75464    -33.405337
   0.79436    -33.403643
   0.83408    -33.399377
   0.87379    -33.394061
   0.91351    -33.388704
   0.95323    -33.383804
   0.99295    -33.379566
   1.03267    -33.376060
   1.07238    -33.373272
   1.11210    -33.371148
   1.15182    -33.369611
   1.19154    -33.368567
   1.23126    -33.367915
   1.27097    -33.367560
   1.31069    -33.367403
   1.35041    -33.367354
   1.39013    -33.367337
   1.42985    -33.367286
   1.46957    -33.367157
   1.50928    -33.367006
   1.50928    -33.367006
   1.54900    -33.367180
   1.58872    -33.367338
   1.62844    -33.367414
   1.66815    -33.367452
   1.70787    -33.367517
   1.74759    -33.367687
   1.78731    -33.368051
   1.82703    -33.368709
   1.86674    -33.369757
   1.90646    -33.371295
   1.94618    -33.373420
   1.98590    -33.376208
   2.02562    -33.379715
   2.06533    -33.383953
   2.10505    -33.388856
   2.14477    -33.394216
   2.18449    -33.399540
   2.22421    -33.403820
   2.26392    -33.405539
   2.26392    -33.405539
   2.30364    -33.402494
   2.34336    -33.394881
   2.38308    -33.384958
   2.42280    -33.374068
   2.46251    -33.362861
   2.50223    -33.351681
   2.54195    -33.340721
   2.58167    -33.330110
   2.62139    -33.319967
   2.66110    -33.310384
   2.70082    -33.301443
   2.74054    -33.293231
   2.78026    -33.285812
   2.81998    -33.279264
   2.85969    -33.273636
   2.89941    -33.268982
   2.93913    -33.265344
   2.97885    -33.262762
   3.01857    -33.261260
 
# Band-Index:    8
   3.01857    -33.261253
   2.97885    -33.260846
   2.93913    -33.261543
   2.89941    -33.263347
   2.85969    -33.266243
   2.81998    -33.270208
   2.78026    -33.275202
   2.74054    -33.281177
   2.70082    -33.288050
   2.66110    -33.295734
   2.62139    -33.304099
   2.58167    -33.312991
   2.54195    -33.322216
   2.50223    -33.331513
   2.46251    -33.340584
   2.42280    -33.349054
   2.38308    -33.356467
   2.34336    -33.362319
   2.30364    -33.366097
   2.26392    -33.367414
   2.26392    -33.367414
   2.22421    -33.367103
   2.18449    -33.366235
   2.14477    -33.364981
   2.10505    -33.363573
   2.06533    -33.362223
   2.02562    -33.361091
   1.98590    -33.360284
   1.94618    -33.359844
   1.90646    -33.359773
   1.86674    -33.360040
   1.82703    -33.360587
   1.78731    -33.361343
   1.74759    -33.362235
   1.70787    -33.363187
   1.66815    -33.364127
   1.62844    -33.364998
   1.58872    -33.365751
   1.54900    -33.366349
   1.50928    -33.366667
   1.50928    -33.366667
   1.46957    -33.366383
   1.42985    -33.365825
   1.39013    -33.365107
   1.35041    -33.364267
   1.31069    -33.363353
   1.27097    -33.362422
   1.23126    -33.361547
   1.19154    -33.360803
   1.15182    -33.360266
   1.11210    -33.360005
   1.07238    -33.360080
   1.03267    -33.360521
   0.99295    -33.361327
   0.95323    -33.362455
   0.91351    -33.363801
   0.87379    -33.365202
   0.83408    -33.366447
   0.79436    -33.367305
   0.75464    -33.367603
   0.75464    -33.367603
   0.71492    -33.366287
   0.67520    -33.362499
   0.63549    -33.356628
   0.59577    -33.349192
   0.55605    -33.340697
   0.51633    -33.331603
   0.47662    -33.322284
   0.43690    -33.313042
   0.39718    -33.304137
   0.35746    -33.295762
   0.31774    -33.288071
   0.27803    -33.281192
   0.23831    -33.275213
   0.19859    -33.270216
   0.15887    -33.266249
   0.11915    -33.263352
   0.07944    -33.261547
   0.03972    -33.260849
   0.00000    -33.261253
 
# Band-Index:    9
   0.00000    -31.764126
   0.03972    -31.763998
   0.07944    -31.762960
   0.11915    -31.760793
   0.15887    -31.757489
   0.19859    -31.753058
   0.23831    -31.747518
   0.27803    -31.740910
   0.31774    -31.733267
   0.35746    -31.724655
   0.39718    -31.715147
   0.43690    -31.704841
   0.47662    -31.693857
   0.51633    -31.682357
   0.55605    -31.670557
   0.59577    -31.658777
   0.63549    -31.647505
   0.67520    -31.637602
   0.71492    -31.630454
   0.75464    -31.627783
   0.75464    -31.627783
   0.79436    -31.636041
   0.83408    -31.654670
   0.87379    -31.676458
   0.91351    -31.698627
   0.95323    -31.720200
   0.99295    -31.740733
   1.03267    -31.759982
   1.07238    -31.777790
   1.11210    -31.794054
   1.15182    -31.808709
   1.19154    -31.821711
   1.23126    -31.833038
   1.27097    -31.842687
   1.31069    -31.850659
   1.35041    -31.856959
   1.39013    -31.861603
   1.42985    -31.864608
   1.46957    -31.865995
   1.50928    -31.865952
   1.50928    -31.865952
   1.54900    -31.865996
   1.58872    -31.864602
   1.62844    -31.861590
   1.66815    -31.856939
   1.70787    -31.850631
   1.74759    -31.842652
   1.78731    -31.832995
   1.82703    -31.821660
   1.86674    -31.808650
   1.90646    -31.793986
   1.94618    -31.777713
   1.98590    -31.759893
   2.02562    -31.740629
   2.06533    -31.720077
   2.10505    -31.698474
   2.14477    -31.676256
   2.18449    -31.654385
   2.22421    -31.635630
   2.26392    -31.627307
   2.26392    -31.627307
   2.30364    -31.630000
   2.34336    -31.637200
   2.38308    -31.647162
   2.42280    -31.658482
   2.46251    -31.670299
   2.50223    -31.682125
   2.54195    -31.693646
   2.58167    -31.704645
   2.62139    -31.714965
   2.66110    -31.724486
   2.70082    -31.733112
   2.74054    -31.740769
   2.78026    -31.747394
   2.81998    -31.752951
   2.85969    -31.757402
   2.89941    -31.760728
   2.93913    -31.762917
   2.97885    -31.763979
   3.01857    -31.764126
 
# Band-Index:   10
   3.01857    -31.763345
   2.97885    -31.762323
   2.93913    -31.759897
   2.89941    -31.756294
   2.85969    -31.751561
   2.81998    -31.745725
   2.78026    -31.738822
   2.74054    -31.730904
   2.70082    -31.722026
   2.66110    -31.712268
   2.62139    -31.701724
   2.58167    -31.690512
   2.54195    -31.678778
   2.50223    -31.666698
   2.46251    -31.654501
   2.42280    -31.642487
   2.38308    -31.631046
   2.34336    -31.620788
   2.30364    -31.612827
   2.26392    -31.609521
   2.26392    -31.609521
   2.22421    -31.619171
   2.18449    -31.637631
   2.14477    -31.658503
   2.10505    -31.679993
   2.06533    -31.701253
   2.02562    -31.721819
   1.98590    -31.741408
   1.94618    -31.759833
   1.90646    -31.776959
   1.86674    -31.792700
   1.82703    -31.806989
   1.78731    -31.819778
   1.74759    -31.831042
   1.70787    -31.840756
   1.66815    -31.848905
   1.62844    -31.855482
   1.58872    -31.860479
   1.54900    -31.863887
   1.50928    -31.865525
   1.50928    -31.865525
   1.46957    -31.863894
   1.42985    -31.860485
   1.39013    -31.855487
   1.35041    -31.848911
   1.31069    -31.840762
   1.27097    -31.831048
   1.23126    -31.819786
   1.19154    -31.806998
   1.15182    -31.792711
   1.11210    -31.776970
   1.07238    -31.759845
   1.03267    -31.741421
   0.99295    -31.721830
   0.95323    -31.701259
   0.91351    -31.679986
   0.87379    -31.658471
   0.83408    -31.637550
   0.79436    -31.619016
   0.75464    -31.609316
   0.75464    -31.609316
   0.71492    -31.612604
   0.67520    -31.620559
   0.63549    -31.630835
   0.59577    -31.642301
   0.55605    -31.654337
   0.51633    -31.666551
   0.47662    -31.678643
   0.43690    -31.690388
   0.39718    -31.701608
   0.35746    -31.712160
   0.31774    -31.721926
   0.27803    -31.730813
   0.23831    -31.738741
   0.19859    -31.745655
   0.15887    -31.751503
   0.11915    -31.756251
   0.07944    -31.759869
   0.03972    -31.762311
   0.00000    -31.763345
 
# Band-Index:   11
   0.00000    -31.429997
   0.03972    -31.430910
   0.07944    -31.432812
   0.11915    -31.435642
   0.15887    -31.439408
   0.19859    -31.444103
   0.23831    -31.449709
   0.27803    -31.456205
   0.31774    -31.463547
   0.35746    -31.471691
   0.39718    -31.480583
   0.43690    -31.490161
   0.47662    -31.500351
   0.51633    -31.511054
   0.55605    -31.522156
   0.59577    -31.533472
   0.63549    -31.544685
   0.67520    -31.555188
   0.71492    -31.563601
   0.75464    -31.567138
   0.75464    -31.567138
   0.79436    -31.555649
   0.83408    -31.533591
   0.87379    -31.509083
   0.91351    -31.484120
   0.95323    -31.459509
   0.99295    -31.435773
   1.03267    -31.413359
   1.07238    -31.392706
   1.11210    -31.374273
   1.15182    -31.358531
   1.19154    -31.345893
   1.23126    -31.336582
   1.27097    -31.330451
   1.31069    -31.326956
   1.35041    -31.325324
   1.39013    -31.324812
   1.42985    -31.324851
   1.46957    -31.325255
   1.50928    -31.325534
   1.50928    -31.325534
   1.54900    -31.325470
   1.58872    -31.325330
   1.62844    -31.325323
   1.66815    -31.325839
   1.70787    -31.327461
   1.74759    -31.330935
   1.78731    -31.337035
   1.82703    -31.346311
   1.86674    -31.358916
   1.90646    -31.374629
   1.94618    -31.393041
   1.98590    -31.413679
   2.02562    -31.436086
   2.06533    -31.459821
   2.10505    -31.484439
   2.14477    -31.509421
   2.18449    -31.533968
   2.22421    -31.556094
   2.26392    -31.567620
   2.26392    -31.567620
   2.30364    -31.564026
   2.34336    -31.555529
   2.38308    -31.544958
   2.42280    -31.533695
   2.46251    -31.522343
   2.50223    -31.511215
   2.54195    -31.500491
   2.58167    -31.490286
   2.62139    -31.480696
   2.66110    -31.471794
   2.70082    -31.463642
   2.74054    -31.456292
   2.78026    -31.449789
   2.81998    -31.444174
   2.85969    -31.439469
   2.89941    -31.435691
   2.93913    -31.432847
   2.97885    -31.430929
   3.01857    -31.429997
 
# Band-Index:   12
   3.01857    -31.429807
   2.97885    -31.429741
   2.93913    -31.430442
   2.89941    -31.431962
   2.85969    -31.434279
   2.81998    -31.437372
   2.78026    -31.441222
   2.74054    -31.445817
   2.70082    -31.451139
   2.66110    -31.457171
   2.62139    -31.463892
   2.58167    -31.471261
   2.54195    -31.479222
   2.50223    -31.487671
   2.46251    -31.496454
   2.42280    -31.505309
   2.38308    -31.513793
   2.34336    -31.521199
   2.30364    -31.526467
   2.26392    -31.528426
   2.26392    -31.528426
   2.22421    -31.521339
   2.18449    -31.504407
   2.14477    -31.483249
   2.10505    -31.460640
   2.06533    -31.437866
   2.02562    -31.415668
   1.98590    -31.394608
   1.94618    -31.375207
   1.90646    -31.358017
   1.86674    -31.343664
   1.82703    -31.332755
   1.78731    -31.325628
   1.74759    -31.322008
   1.70787    -31.321002
   1.66815    -31.321524
   1.62844    -31.322678
   1.58872    -31.323858
   1.54900    -31.324703
   1.50928    -31.325013
   1.50928    -31.325013
   1.46957    -31.324902
   1.42985    -31.324304
   1.39013    -31.323140
   1.35041    -31.321970
   1.31069    -31.321417
   1.27097    -31.322378
   1.23126    -31.325942
   1.19154    -31.333011
   1.15182    -31.343871
   1.11210    -31.358187
   1.07238    -31.375353
   1.03267    -31.394738
   0.99295    -31.415789
   0.95323    -31.437982
   0.91351    -31.460757
   0.87379    -31.483372
   0.83408    -31.504544
   0.79436    -31.521500
   0.75464    -31.528618
   0.75464    -31.528618
   0.71492    -31.526660
   0.67520    -31.521385
   0.63549    -31.513969
   0.59577    -31.505475
   0.55605    -31.496612
   0.51633    -31.487823
   0.47662    -31.479368
   0.43690    -31.471403
   0.39718    -31.464029
   0.35746    -31.457303
   0.31774    -31.451265
   0.27803    -31.445936
   0.23831    -31.441331
   0.19859    -31.437470
   0.15887    -31.434363
   0.11915    -31.432029
   0.07944    -31.430490
   0.03972    -31.429766
   0.00000    -31.429807
 
# Band-Index:   13
   0.00000    -31.104085
   0.03972    -31.104875
   0.07944    -31.106115
   0.11915    -31.107729
   0.15887    -31.109668
   0.19859    -31.111868
   0.23831    -31.114262
   0.27803    -31.116783
   0.31774    -31.119346
   0.35746    -31.121886
   0.39718    -31.124332
   0.43690    -31.126625
   0.47662    -31.128720
   0.51633    -31.130574
   0.55605    -31.132164
   0.59577    -31.133480
   0.63549    -31.134505
   0.67520    -31.135240
   0.71492    -31.135679
   0.75464    -31.135829
   0.75464    -31.135829
   0.79436    -31.137812
   0.83408    -31.143452
   0.87379    -31.151970
   0.91351    -31.162452
   0.95323    -31.174032
   0.99295    -31.185936
   1.03267    -31.197471
   1.07238    -31.208000
   1.11210    -31.216902
   1.15182    -31.223541
   1.19154    -31.227317
   1.23126    -31.227925
   1.27097    -31.225692
   1.31069    -31.221560
   1.35041    -31.216661
   1.39013    -31.211936
   1.42985    -31.208026
   1.46957    -31.205314
   1.50928    -31.203997
   1.50928    -31.203997
   1.54900    -31.205304
   1.58872    -31.208006
   1.62844    -31.211904
   1.66815    -31.216611
   1.70787    -31.221484
   1.74759    -31.225580
   1.78731    -31.227768
   1.82703    -31.227119
   1.86674    -31.223316
   1.90646    -31.216670
   1.94618    -31.207783
   1.98590    -31.197292
   2.02562    -31.185814
   2.06533    -31.173984
   2.10505    -31.162475
   2.14477    -31.152046
   2.18449    -31.143556
   2.22421    -31.137925
   2.26392    -31.135945
   2.26392    -31.135945
   2.30364    -31.135789
   2.34336    -31.135341
   2.38308    -31.134594
   2.42280    -31.133556
   2.46251    -31.132227
   2.50223    -31.130624
   2.54195    -31.128759
   2.58167    -31.126653
   2.62139    -31.124351
   2.66110    -31.121899
   2.70082    -31.119354
   2.74054    -31.116787
   2.78026    -31.114264
   2.81998    -31.111868
   2.85969    -31.109666
   2.89941    -31.107727
   2.93913    -31.106112
   2.97885    -31.104872
   3.01857    -31.104085
 
# Band-Index:   14
   3.01857    -31.103990
   2.97885    -31.103622
   2.93913    -31.103646
   2.89941    -31.104094
   2.85969    -31.104943
   2.81998    -31.106152
   2.78026    -31.107666
   2.74054    -31.109428
   2.70082    -31.111361
   2.66110    -31.113397
   2.62139    -31.115456
   2.58167    -31.117465
   2.54195    -31.119361
   2.50223    -31.121076
   2.46251    -31.122567
   2.42280    -31.123804
   2.38308    -31.124765
   2.34336    -31.125447
   2.30364    -31.125853
   2.26392    -31.125996
   2.26392    -31.125996
   2.22421    -31.128295
   2.18449    -31.134710
   2.14477    -31.144083
   2.10505    -31.155147
   2.06533    -31.166838
   2.02562    -31.178375
   1.98590    -31.189196
   1.94618    -31.198847
   1.90646    -31.206911
   1.86674    -31.212989
   1.82703    -31.216742
   1.78731    -31.218039
   1.74759    -31.217120
   1.70787    -31.214609
   1.66815    -31.211342
   1.62844    -31.208120
   1.58872    -31.205570
   1.54900    -31.204114
   1.50928    -31.203983
   1.50928    -31.203983
   1.46957    -31.204109
   1.42985    -31.205562
   1.39013    -31.208107
   1.35041    -31.211319
   1.31069    -31.214571
   1.27097    -31.217058
   1.23126    -31.217949
   1.19154    -31.216623
   1.15182    -31.212849
   1.11210    -31.206762
   1.07238    -31.198707
   1.03267    -31.189084
   0.99295    -31.178312
   0.95323    -31.166840
   0.91351    -31.155212
   0.87379    -31.144193
   0.83408    -31.134840
   0.79436    -31.128430
   0.75464    -31.126132
   0.75464    -31.126132
   0.71492    -31.125994
   0.67520    -31.125589
   0.63549    -31.124904
   0.59577    -31.123937
   0.55605    -31.122691
   0.51633    -31.121190
   0.47662    -31.119465
   0.43690    -31.117558
   0.39718    -31.115538
   0.35746    -31.113468
   0.31774    -31.111423
   0.27803    -31.109481
   0.23831    -31.107710
   0.19859    -31.106188
   0.15887    -31.104971
   0.11915    -31.104115
   0.07944    -31.103658
   0.03972    -31.103626
   0.00000    -31.103990
 
# Band-Index:   15
   0.00000    -30.784480
   0.03972    -30.785619
   0.07944    -30.788939
   0.11915    -30.794331
   0.15887    -30.801663
   0.19859    -30.810753
   0.23831    -30.821375
   0.27803    -30.833266
   0.31774    -30.846119
   0.35746    -30.859610
   0.39718    -30.873387
   0.43690    -30.887089
   0.47662    -30.900347
   0.51633    -30.912788
   0.55605    -30.924063
   0.59577    -30.933836
   0.63549    -30.941796
   0.67520    -30.947686
   0.71492    -30.951297
   0.75464    -30.952512
   0.75464    -30.952512
   0.79436    -30.949779
   0.83408    -30.942058
   0.87379    -30.930471
   0.91351    -30.916259
   0.95323    -30.900451
   0.99295    -30.883823
   1.03267    -30.866954
   1.07238    -30.850284
   1.11210    -30.834152
   1.15182    -30.818841
   1.19154    -30.804573
   1.23126    -30.791546
   1.27097    -30.779922
   1.31069    -30.769839
   1.35041    -30.761410
   1.39013    -30.754732
   1.42985    -30.749878
   1.46957    -30.746901
   1.50928    -30.745852
   1.50928    -30.745852
   1.54900    -30.746891
   1.58872    -30.749857
   1.62844    -30.754700
   1.66815    -30.761363
   1.70787    -30.769776
   1.74759    -30.779838
   1.78731    -30.791438
   1.82703    -30.804438
   1.86674    -30.818674
   1.90646    -30.833952
   1.94618    -30.850047
   1.98590    -30.866679
   2.02562    -30.883509
   2.06533    -30.900096
   2.10505    -30.915865
   2.14477    -30.930038
   2.18449    -30.941589
   2.22421    -30.949286
   2.26392    -30.952011
   2.26392    -30.952011
   2.30364    -30.950813
   2.34336    -30.947224
   2.38308    -30.941359
   2.42280    -30.933427
   2.46251    -30.923682
   2.50223    -30.912436
   2.54195    -30.900024
   2.58167    -30.886793
   2.62139    -30.873119
   2.66110    -30.859369
   2.70082    -30.845903
   2.74054    -30.833073
   2.78026    -30.821204
   2.81998    -30.810604
   2.85969    -30.801537
   2.89941    -30.794231
   2.93913    -30.788872
   2.97885    -30.785593
   3.01857    -30.784480
 
# Band-Index:   16
   3.01857    -30.784291
   2.97885    -30.785350
   2.93913    -30.788478
   2.89941    -30.793595
   2.85969    -30.800567
   2.81998    -30.809206
   2.78026    -30.819284
   2.74054    -30.830541
   2.70082    -30.842676
   2.66110    -30.855370
   2.62139    -30.868287
   2.58167    -30.881079
   2.54195    -30.893401
   2.50223    -30.904908
   2.46251    -30.915280
   2.42280    -30.924221
   2.38308    -30.931464
   2.34336    -30.936798
   2.30364    -30.940055
   2.26392    -30.941141
   2.26392    -30.941141
   2.22421    -30.938779
   2.18449    -30.932029
   2.14477    -30.921705
   2.10505    -30.908788
   2.06533    -30.894171
   2.02562    -30.878581
   1.98590    -30.862587
   1.94618    -30.846645
   1.90646    -30.831113
   1.86674    -30.816299
   1.82703    -30.802447
   1.78731    -30.789771
   1.74759    -30.778454
   1.70787    -30.768646
   1.66815    -30.760471
   1.62844    -30.754035
   1.58872    -30.749414
   1.54900    -30.746662
   1.50928    -30.745782
   1.50928    -30.745782
   1.46957    -30.746653
   1.42985    -30.749396
   1.39013    -30.754007
   1.35041    -30.760431
   1.31069    -30.768590
   1.27097    -30.778378
   1.23126    -30.789672
   1.19154    -30.802321
   1.15182    -30.816143
   1.11210    -30.830923
   1.07238    -30.846418
   1.03267    -30.862322
   0.99295    -30.878276
   0.95323    -30.893827
   0.91351    -30.908404
   0.87379    -30.921282
   0.83408    -30.931571
   0.79436    -30.938296
   0.75464    -30.940648
   0.75464    -30.940648
   0.71492    -30.939553
   0.67520    -30.936292
   0.63549    -30.930960
   0.59577    -30.923724
   0.55605    -30.914795
   0.51633    -30.904440
   0.47662    -30.892954
   0.43690    -30.880657
   0.39718    -30.867892
   0.35746    -30.855005
   0.31774    -30.842342
   0.27803    -30.830240
   0.23831    -30.819016
   0.19859    -30.808973
   0.15887    -30.800372
   0.11915    -30.793443
   0.07944    -30.788374
   0.03972    -30.785306
   0.00000    -30.784291
 
# Band-Index:   17
   0.00000    -20.933092
   0.03972    -20.929106
   0.07944    -20.916340
   0.11915    -20.894834
   0.15887    -20.865080
   0.19859    -20.827757
   0.23831    -20.783740
   0.27803    -20.734142
   0.31774    -20.680118
   0.35746    -20.623076
   0.39718    -20.564487
   0.43690    -20.505934
   0.47662    -20.449043
   0.51633    -20.395422
   0.55605    -20.346697
   0.59577    -20.304400
   0.63549    -20.269819
   0.67520    -20.244171
   0.71492    -20.228322
   0.75464    -20.222983
   0.75464    -20.222983
   0.79436    -20.218943
   0.83408    -20.206964
   0.87379    -20.187196
   0.91351    -20.160061
   0.95323    -20.126109
   0.99295    -20.086072
   1.03267    -20.040884
   1.07238    -19.991585
   1.11210    -19.939391
   1.15182    -19.885673
   1.19154    -19.831802
   1.23126    -19.779298
   1.27097    -19.729692
   1.31069    -19.684464
   1.35041    -19.644999
   1.39013    -19.612612
   1.42985    -19.588368
   1.46957    -19.573132
   1.50928    -19.567569
   1.50928    -19.567569
   1.54900    -19.573123
   1.58872    -19.588350
   1.62844    -19.612585
   1.66815    -19.644964
   1.70787    -19.684420
   1.74759    -19.729637
   1.78731    -19.779230
   1.82703    -19.831720
   1.86674    -19.885573
   1.90646    -19.939269
   1.94618    -19.991437
   1.98590    -20.040703
   2.02562    -20.085850
   2.06533    -20.125837
   2.10505    -20.159730
   2.14477    -20.186794
   2.18449    -20.206486
   2.22421    -20.218400
   2.26392    -20.222414
   2.26392    -20.222414
   2.30364    -20.227791
   2.34336    -20.243722
   2.38308    -20.269449
   2.42280    -20.304093
   2.46251    -20.346436
   2.50223    -20.395196
   2.54195    -20.448843
   2.58167    -20.505755
   2.62139    -20.564326
   2.66110    -20.622930
   2.70082    -20.679987
   2.74054    -20.734026
   2.78026    -20.783638
   2.81998    -20.827669
   2.85969    -20.865009
   2.89941    -20.894779
   2.93913    -20.916303
   2.97885    -20.929088
   3.01857    -20.933092
 
# Band-Index:   18
   3.01857    -20.932243
   2.97885    -20.927097
   2.93913    -20.912639
   2.89941    -20.889466
   2.85969    -20.858150
   2.81998    -20.819416
   2.78026    -20.774177
   2.74054    -20.723579
   2.70082    -20.668804
   2.66110    -20.611281
   2.62139    -20.552497
   2.58167    -20.494043
   2.54195    -20.437539
   2.50223    -20.384580
   2.46251    -20.336756
   2.42280    -20.295547
   2.38308    -20.262150
   2.34336    -20.237643
   2.30364    -20.222674
   2.26392    -20.217678
   2.26392    -20.217678
   2.22421    -20.213441
   2.18449    -20.200928
   2.14477    -20.180411
   2.10505    -20.152434
   2.06533    -20.117644
   2.02562    -20.076847
   1.98590    -20.031031
   1.94618    -19.981280
   1.90646    -19.928843
   1.86674    -19.875117
   1.82703    -19.821494
   1.78731    -19.769501
   1.74759    -19.720672
   1.70787    -19.676476
   1.66815    -19.638279
   1.62844    -19.607364
   1.58872    -19.584753
   1.54900    -19.571245
   1.50928    -19.567068
   1.50928    -19.567068
   1.46957    -19.571235
   1.42985    -19.584733
   1.39013    -19.607332
   1.35041    -19.638233
   1.31069    -19.676414
   1.27097    -19.720591
   1.23126    -19.769399
   1.19154    -19.821368
   1.15182    -19.874964
   1.11210    -19.928658
   1.07238    -19.981060
   1.03267    -20.030769
   0.99295    -20.076537
   0.95323    -20.117277
   0.91351    -20.152001
   0.87379    -20.179902
   0.83408    -20.200339
   0.79436    -20.212785
   0.75464    -20.216994
   0.75464    -20.216994
   0.71492    -20.222030
   0.67520    -20.237084
   0.63549    -20.261674
   0.59577    -20.295139
   0.55605    -20.336403
   0.51633    -20.384269
   0.47662    -20.437264
   0.43690    -20.493798
   0.39718    -20.552280
   0.35746    -20.611089
   0.31774    -20.668635
   0.27803    -20.723433
   0.23831    -20.774053
   0.19859    -20.819313
   0.15887    -20.858069
   0.11915    -20.889406
   0.07944    -20.912600
   0.03972    -20.927078
   0.00000    -20.932243
 
# Band-Index:   19
   0.00000    -13.427756
   0.03972    -13.425425
   0.07944    -13.418414
   0.11915    -13.406824
   0.15887    -13.390922
   0.19859    -13.371103
   0.23831    -13.347872
   0.27803    -13.321836
   0.31774    -13.293683
   0.35746    -13.264181
   0.39718    -13.234148
   0.43690    -13.204434
   0.47662    -13.175894
   0.51633    -13.149351
   0.55605    -13.125567
   0.59577    -13.105211
   0.63549    -13.088831
   0.67520    -13.076845
   0.71492    -13.069543
   0.75464    -13.067090
   0.75464    -13.067090
   0.79436    -13.065026
   0.83408    -13.058910
   0.87379    -13.048973
   0.91351    -13.035611
   0.95323    -13.019386
   0.99295    -13.001036
   1.03267    -12.981467
   1.07238    -12.961724
   1.11210    -12.942903
   1.15182    -12.926015
   1.19154    -12.911803
   1.23126    -12.900608
   1.27097    -12.892343
   1.31069    -12.886597
   1.35041    -12.882804
   1.39013    -12.880388
   1.42985    -12.878864
   1.46957    -12.877895
   1.50928    -12.877451
   1.50928    -12.877451
   1.54900    -12.877886
   1.58872    -12.878843
   1.62844    -12.880352
   1.66815    -12.882748
   1.70787    -12.886514
   1.74759    -12.892222
   1.78731    -12.900435
   1.82703    -12.911563
   1.86674    -12.925693
   1.90646    -12.942489
   1.94618    -12.961217
   1.98590    -12.980876
   2.02562    -13.000375
   2.06533    -13.018674
   2.10505    -13.034861
   2.14477    -13.048197
   2.18449    -13.058117
   2.22421    -13.064224
   2.26392    -13.066286
   2.26392    -13.066286
   2.30364    -13.068740
   2.34336    -13.076047
   2.38308    -13.088038
   2.42280    -13.104425
   2.46251    -13.124788
   2.50223    -13.148579
   2.54195    -13.175130
   2.58167    -13.203680
   2.62139    -13.233407
   2.66110    -13.263458
   2.70082    -13.292986
   2.74054    -13.321174
   2.78026    -13.347258
   2.81998    -13.370555
   2.85969    -13.390461
   2.89941    -13.406476
   2.93913    -13.418202
   2.97885    -13.425353
   3.01857    -13.427756
 
# Band-Index:   20
   3.01857    -13.426766
   2.97885    -13.424283
   2.93913    -13.416890
   2.89941    -13.404765
   2.85969    -13.388205
   2.81998    -13.367617
   2.78026    -13.343519
   2.74054    -13.316535
   2.70082    -13.287375
   2.66110    -13.256834
   2.62139    -13.225765
   2.58167    -13.195056
   2.54195    -13.165601
   2.50223    -13.138260
   2.46251    -13.113822
   2.42280    -13.092970
   2.38308    -13.076246
   2.34336    -13.064050
   2.30364    -13.056637
   2.26392    -13.054151
   2.26392    -13.054151
   2.22421    -13.052156
   2.18449    -13.046241
   2.14477    -13.036627
   2.10505    -13.023682
   2.06533    -13.007934
   2.02562    -12.990075
   1.98590    -12.970966
   1.94618    -12.951620
   1.90646    -12.933152
   1.86674    -12.916642
   1.82703    -12.902936
   1.78731    -12.892448
   1.74759    -12.885099
   1.70787    -12.880429
   1.66815    -12.877804
   1.62844    -12.876592
   1.58872    -12.876262
   1.54900    -12.876412
   1.50928    -12.876627
   1.50928    -12.876627
   1.46957    -12.876404
   1.42985    -12.876240
   1.39013    -12.876551
   1.35041    -12.877739
   1.31069    -12.880332
   1.27097    -12.884957
   1.23126    -12.892249
   1.19154    -12.902663
   1.15182    -12.916282
   1.11210    -12.932695
   1.07238    -12.951068
   1.03267    -12.970328
   0.99295    -12.989368
   0.95323    -13.007174
   0.91351    -13.022884
   0.87379    -13.035803
   0.83408    -13.045400
   0.79436    -13.051305
   0.75464    -13.053297
   0.75464    -13.053297
   0.71492    -13.055785
   0.67520    -13.063203
   0.63549    -13.075407
   0.59577    -13.092141
   0.55605    -13.113004
   0.51633    -13.137454
   0.47662    -13.164807
   0.43690    -13.194276
   0.39718    -13.225002
   0.35746    -13.256093
   0.31774    -13.286662
   0.27803    -13.315860
   0.23831    -13.342896
   0.19859    -13.367062
   0.15887    -13.387739
   0.11915    -13.404413
   0.07944    -13.416676
   0.03972    -13.424210
   0.00000    -13.426766
 
# Band-Index:   21
   0.00000    -12.591477
   0.03972    -12.591912
   0.07944    -12.593199
   0.11915    -12.595285
   0.15887    -12.598094
   0.19859    -12.601526
   0.23831    -12.605462
   0.27803    -12.609759
   0.31774    -12.614260
   0.35746    -12.618796
   0.39718    -12.623193
   0.43690    -12.627282
   0.47662    -12.630914
   0.51633    -12.633967
   0.55605    -12.636371
   0.59577    -12.638108
   0.63549    -12.639218
   0.67520    -12.639787
   0.71492    -12.639916
   0.75464    -12.639709
   0.75464    -12.639709
   0.79436    -12.640446
   0.83408    -12.641738
   0.87379    -12.643454
   0.91351    -12.645373
   0.95323    -12.647170
   0.99295    -12.648416
   1.03267    -12.648567
   1.07238    -12.646993
   1.11210    -12.643042
   1.15182    -12.636180
   1.19154    -12.626191
   1.23126    -12.613355
   1.27097    -12.598485
   1.31069    -12.582779
   1.35041    -12.567582
   1.39013    -12.554174
   1.42985    -12.543631
   1.46957    -12.536768
   1.50928    -12.534258
   1.50928    -12.534258
   1.54900    -12.536721
   1.58872    -12.543529
   1.62844    -12.554023
   1.66815    -12.567390
   1.70787    -12.582555
   1.74759    -12.598240
   1.78731    -12.613099
   1.82703    -12.625936
   1.86674    -12.635936
   1.90646    -12.642819
   1.94618    -12.646800
   1.98590    -12.648411
   2.02562    -12.648307
   2.06533    -12.647118
   2.10505    -12.645391
   2.14477    -12.643564
   2.18449    -12.641980
   2.22421    -12.640896
   2.26392    -12.640506
   2.26392    -12.640507
   2.30364    -12.640446
   2.34336    -12.640183
   2.38308    -12.639556
   2.42280    -12.638421
   2.46251    -12.636673
   2.50223    -12.634264
   2.54195    -12.631207
   2.58167    -12.627570
   2.62139    -12.623472
   2.66110    -12.619063
   2.70082    -12.614511
   2.74054    -12.609988
   2.78026    -12.605665
   2.81998    -12.601699
   2.85969    -12.598230
   2.89941    -12.595381
   2.93913    -12.593253
   2.97885    -12.591928
   3.01857    -12.591477
 
# Band-Index:   22
   3.01857    -12.590732
   2.97885    -12.591104
   2.93913    -12.592226
   2.89941    -12.594081
   2.85969    -12.596620
   2.81998    -12.599759
   2.78026    -12.603389
   2.74054    -12.607379
   2.70082    -12.611585
   2.66110    -12.615854
   2.62139    -12.620029
   2.58167    -12.623966
   2.54195    -12.627536
   2.50223    -12.630641
   2.46251    -12.633226
   2.42280    -12.635280
   2.38308    -12.636830
   2.34336    -12.637927
   2.30364    -12.638600
   2.26392    -12.638834
   2.26392    -12.638834
   2.22421    -12.639031
   2.18449    -12.639621
   2.14477    -12.640532
   2.10505    -12.641573
   2.06533    -12.642439
   2.02562    -12.642721
   1.98590    -12.641915
   1.94618    -12.639459
   1.90646    -12.634805
   1.86674    -12.627541
   1.82703    -12.617551
   1.78731    -12.605149
   1.74759    -12.591092
   1.70787    -12.576466
   1.66815    -12.562491
   1.62844    -12.550348
   1.58872    -12.541045
   1.54900    -12.535333
   1.50928    -12.533515
   1.50928    -12.533515
   1.46957    -12.535288
   1.42985    -12.540947
   1.39013    -12.550205
   1.35041    -12.562313
   1.31069    -12.576264
   1.27097    -12.590877
   1.23126    -12.604930
   1.19154    -12.617341
   1.15182    -12.627349
   1.11210    -12.634639
   1.07238    -12.639326
   1.03267    -12.641821
   0.99295    -12.642675
   0.95323    -12.642451
   0.91351    -12.641656
   0.87379    -12.640706
   0.83408    -12.639927
   0.79436    -12.639546
   0.75464    -12.639697
   0.75464    -12.639697
   0.71492    -12.639194
   0.67520    -12.638384
   0.63549    -12.637225
   0.59577    -12.635644
   0.55605    -12.633574
   0.51633    -12.630978
   0.47662    -12.627862
   0.43690    -12.624281
   0.39718    -12.620331
   0.35746    -12.616138
   0.31774    -12.611849
   0.27803    -12.607619
   0.23831    -12.603599
   0.19859    -12.599936
   0.15887    -12.596760
   0.11915    -12.594179
   0.07944    -12.592280
   0.03972    -12.591121
   0.00000    -12.590732
 
# Band-Index:   23
   0.00000     -5.807572
   0.03972     -5.830848
   0.07944     -5.908769
   0.11915     -6.018562
   0.15887     -6.144210
   0.19859     -6.279645
   0.23831     -6.421486
   0.27803     -6.567278
   0.31774     -6.714851
   0.35746     -6.862036
   0.39718     -7.006516
   0.43690     -7.145771
   0.47662     -7.277141
   0.51633     -7.397884
   0.55605     -7.505353
   0.59577     -7.597056
   0.63549     -7.670804
   0.67520     -7.724829
   0.71492     -7.757770
   0.75464     -7.768841
   0.75464     -7.768841
   0.79436     -7.772311
   0.83408     -7.782623
   0.87379     -7.799460
   0.91351     -7.822344
   0.95323     -7.850585
   0.99295     -7.883386
   1.03267     -7.919818
   1.07238     -7.958877
   1.11210     -7.999519
   1.15182     -8.040658
   1.19154     -8.081203
   1.23126     -8.120148
   1.27097     -8.156731
   1.31069     -8.190896
   1.35041     -8.220945
   1.39013     -8.245343
   1.42985     -8.263360
   1.46957     -8.274617
   1.50928     -8.281690
   1.50928     -8.281690
   1.54900     -8.277631
   1.58872     -8.266332
   1.62844     -8.248246
   1.66815     -8.223731
   1.70787     -8.193414
   1.74759     -8.158106
   1.78731     -8.119036
   1.82703     -8.078826
   1.86674     -8.038177
   1.90646     -7.997098
   1.94618     -7.956552
   1.98590     -7.917596
   2.02562     -7.881265
   2.06533     -7.848558
   2.10505     -7.820400
   2.14477     -7.797584
   2.18449     -7.780798
   2.22421     -7.770516
   2.26392     -7.767057
   2.26392     -7.767057
   2.30364     -7.755995
   2.34336     -7.723079
   2.38308     -7.669096
   2.42280     -7.595404
   2.46251     -7.503768
   2.50223     -7.396376
   2.54195     -7.275716
   2.58167     -7.144430
   2.62139     -7.005257
   2.66110     -6.860855
   2.70082     -6.713738
   2.74054     -6.566221
   2.78026     -6.420470
   2.81998     -6.278654
   2.85969     -6.143228
   2.89941     -6.017578
   2.93913     -5.907793
   2.97885     -5.831230
   3.01857     -5.807572
 
# Band-Index:   24
   3.01857     -5.806493
   2.97885     -5.829358
   2.93913     -5.906346
   2.89941     -6.012010
   2.85969     -6.133461
   2.81998     -6.264754
   2.78026     -6.402605
   2.74054     -6.544629
   2.70082     -6.688711
   2.66110     -6.832731
   2.62139     -6.974400
   2.58167     -7.111216
   2.54195     -7.240518
   2.50223     -7.359550
   2.46251     -7.465643
   2.42280     -7.556272
   2.38308     -7.629221
   2.34336     -7.682696
   2.30364     -7.715313
   2.26392     -7.726278
   2.26392     -7.726278
   2.22421     -7.730222
   2.18449     -7.741934
   2.14477     -7.761028
   2.10505     -7.786921
   2.06533     -7.818786
   2.02562     -7.855672
   1.98590     -7.896490
   1.94618     -7.940072
   1.90646     -7.985215
   1.86674     -8.030673
   1.82703     -8.075082
   1.78731     -8.116260
   1.74759     -8.152768
   1.70787     -8.185255
   1.66815     -8.213140
   1.62844     -8.235753
   1.58872     -8.252697
   1.54900     -8.268040
   1.50928     -8.278657
   1.50928     -8.278657
   1.46957     -8.271089
   1.42985     -8.255851
   1.39013     -8.238845
   1.35041     -8.216121
   1.31069     -8.187974
   1.27097     -8.154351
   1.23126     -8.115366
   1.19154     -8.072934
   1.15182     -8.028434
   1.11210     -7.983052
   1.07238     -7.938019
   1.03267     -7.894558
   0.99295     -7.853859
   0.95323     -7.817083
   0.91351     -7.785317
   0.87379     -7.759506
   0.83408     -7.740474
   0.79436     -7.728800
   0.75464     -7.724869
   0.75464     -7.724869
   0.71492     -7.713908
   0.67520     -7.681302
   0.63549     -7.627845
   0.59577     -7.554920
   0.55605     -7.464319
   0.51633     -7.358257
   0.47662     -7.239256
   0.43690     -7.109985
   0.39718     -6.973196
   0.35746     -6.831551
   0.31774     -6.687551
   0.27803     -6.543481
   0.23831     -6.401463
   0.19859     -6.263611
   0.15887     -6.132308
   0.11915     -6.010846
   0.07944     -5.905191
   0.03972     -5.829620
   0.00000     -5.806493
 
# Band-Index:   25
   0.00000     -5.759692
   0.03972     -5.777269
   0.07944     -5.795092
   0.11915     -5.813106
   0.15887     -5.835152
   0.19859     -5.861142
   0.23831     -5.890236
   0.27803     -5.921427
   0.31774     -5.953697
   0.35746     -5.986089
   0.39718     -6.017753
   0.43690     -6.047957
   0.47662     -6.076108
   0.51633     -6.101755
   0.55605     -6.124633
   0.59577     -6.144737
   0.63549     -6.162360
   0.67520     -6.177704
   0.71492     -6.191713
   0.75464     -6.197430
   0.75464     -6.197430
   0.79436     -6.251320
   0.83408     -6.328519
   0.87379     -6.424978
   0.91351     -6.539533
   0.95323     -6.670043
   0.99295     -6.813581
   1.03267     -6.966674
   1.07238     -7.125605
   1.11210     -7.286531
   1.15182     -7.445694
   1.19154     -7.599427
   1.23126     -7.744249
   1.27097     -7.876931
   1.31069     -7.994535
   1.35041     -8.094439
   1.39013     -8.174428
   1.42985     -8.232502
   1.46957     -8.263001
   1.50928     -8.267762
   1.50928     -8.267762
   1.54900     -8.259896
   1.58872     -8.229629
   1.62844     -8.171659
   1.66815     -8.091739
   1.70787     -7.991865
   1.74759     -7.874259
   1.78731     -7.741560
   1.82703     -7.596720
   1.86674     -7.442985
   1.90646     -7.283852
   1.94618     -7.122999
   1.98590     -6.964189
   2.02562     -6.811266
   2.06533     -6.667938
   2.10505     -6.537664
   2.14477     -6.423359
   2.18449     -6.327156
   2.22421     -6.250234
   2.26392     -6.197155
   2.26392     -6.197155
   2.30364     -6.191456
   2.34336     -6.176545
   2.38308     -6.160515
   2.42280     -6.142635
   2.46251     -6.122450
   2.50223     -6.099570
   2.54195     -6.073960
   2.58167     -6.045868
   2.62139     -6.015741
   2.66110     -5.984168
   2.70082     -5.951880
   2.74054     -5.919725
   2.78026     -5.888654
   2.81998     -5.859683
   2.85969     -5.833814
   2.89941     -5.811884
   2.93913     -5.794026
   2.97885     -5.776587
   3.01857     -5.759692
 
# Band-Index:   26
   3.01857     -5.758754
   2.97885     -5.771762
   2.93913     -5.787907
   2.89941     -5.803157
   2.85969     -5.821268
   2.81998     -5.842541
   2.78026     -5.866421
   2.74054     -5.892143
   2.70082     -5.918896
   2.66110     -5.945904
   2.62139     -5.972471
   2.58167     -5.998022
   2.54195     -6.022207
   2.50223     -6.045286
   2.46251     -6.070742
   2.42280     -6.107690
   2.38308     -6.145103
   2.34336     -6.172924
   2.30364     -6.186575
   2.26392     -6.190820
   2.26392     -6.190820
   2.22421     -6.203490
   2.18449     -6.278537
   2.14477     -6.377280
   2.10505     -6.495291
   2.06533     -6.629493
   2.02562     -6.776530
   1.98590     -6.932762
   1.94618     -7.094454
   1.90646     -7.257826
   1.86674     -7.419211
   1.82703     -7.575030
   1.78731     -7.721870
   1.74759     -7.856543
   1.70787     -7.976117
   1.66815     -8.077937
   1.62844     -8.159732
   1.58872     -8.219551
   1.54900     -8.255820
   1.50928     -8.264577
   1.50928     -8.264578
   1.46957     -8.252686
   1.42985     -8.216520
   1.39013     -8.156824
   1.35041     -8.075130
   1.31069     -7.973379
   1.27097     -7.853851
   1.23126     -7.719215
   1.19154     -7.572416
   1.15182     -7.416660
   1.11210     -7.255372
   1.07238     -7.092141
   1.03267     -6.930638
   0.99295     -6.774639
   0.95323     -6.627868
   0.91351     -6.493951
   0.87379     -6.376233
   0.83408     -6.277799
   0.79436     -6.203129
   0.75464     -6.191889
   0.75464     -6.191889
   0.71492     -6.187781
   0.67520     -6.173564
   0.63549     -6.145400
   0.59577     -6.107689
   0.55605     -6.069617
   0.51633     -6.043550
   0.47662     -6.020419
   0.43690     -5.996273
   0.39718     -5.970788
   0.35746     -5.944300
   0.31774     -5.917383
   0.27803     -5.890727
   0.23831     -5.865107
   0.19859     -5.841330
   0.15887     -5.820157
   0.11915     -5.802145
   0.07944     -5.787031
   0.03972     -5.771206
   0.00000     -5.758754
 
# Band-Index:   27
   0.00000     -5.514048
   0.03972     -5.497340
   0.07944     -5.462548
   0.11915     -5.433728
   0.15887     -5.422926
   0.19859     -5.435597
   0.23831     -5.471675
   0.27803     -5.527092
   0.31774     -5.596261
   0.35746     -5.674426
   0.39718     -5.757068
   0.43690     -5.838514
   0.47662     -5.915016
   0.51633     -5.983342
   0.55605     -6.037799
   0.59577     -6.079091
   0.63549     -6.115105
   0.67520     -6.139027
   0.71492     -6.151792
   0.75464     -6.155710
   0.75464     -6.155710
   0.79436     -6.145550
   0.83408     -6.120741
   0.87379     -6.107089
   0.91351     -6.103575
   0.95323     -6.108336
   0.99295     -6.119658
   1.03267     -6.136042
   1.07238     -6.156154
   1.11210     -6.178788
   1.15182     -6.202838
   1.19154     -6.227286
   1.23126     -6.251195
   1.27097     -6.273719
   1.31069     -6.294100
   1.35041     -6.311686
   1.39013     -6.325926
   1.42985     -6.336393
   1.46957     -6.342758
   1.50928     -6.344811
   1.50928     -6.344811
   1.54900     -6.342690
   1.58872     -6.336284
   1.62844     -6.325793
   1.66815     -6.311531
   1.70787     -6.293923
   1.74759     -6.273518
   1.78731     -6.250968
   1.82703     -6.227029
   1.86674     -6.202547
   1.90646     -6.178459
   1.94618     -6.155784
   1.98590     -6.135625
   2.02562     -6.119186
   2.06533     -6.107798
   2.10505     -6.102955
   2.14477     -6.106363
   2.18449     -6.119866
   2.22421     -6.144401
   2.26392     -6.154510
   2.26392     -6.154510
   2.30364     -6.150722
   2.34336     -6.138327
   2.38308     -6.114844
   2.42280     -6.079185
   2.46251     -6.038110
   2.50223     -5.982984
   2.54195     -5.914510
   2.58167     -5.837943
   2.62139     -5.756467
   2.66110     -5.674049
   2.70082     -5.596481
   2.74054     -5.527461
   2.78026     -5.472146
   2.81998     -5.436184
   2.85969     -5.423622
   2.89941     -5.434448
   2.93913     -5.463160
   2.97885     -5.497710
   3.01857     -5.514048
 
# Band-Index:   28
   3.01857     -5.512696
   2.97885     -5.491285
   2.93913     -5.453897
   2.89941     -5.424398
   2.85969     -5.413513
   2.81998     -5.426450
   2.78026     -5.463614
   2.74054     -5.521059
   2.70082     -5.592782
   2.66110     -5.672131
   2.62139     -5.752407
   2.58167     -5.830892
   2.54195     -5.904830
   2.50223     -5.971789
   2.46251     -6.029540
   2.42280     -6.066582
   2.38308     -6.082731
   2.34336     -6.092857
   2.30364     -6.098739
   2.26392     -6.100687
   2.26392     -6.100687
   2.22421     -6.081153
   2.18449     -6.060292
   2.14477     -6.050908
   2.10505     -6.052122
   2.06533     -6.061938
   2.02562     -6.078449
   1.98590     -6.099999
   1.94618     -6.125143
   1.90646     -6.152594
   1.86674     -6.181184
   1.82703     -6.209839
   1.78731     -6.237574
   1.74759     -6.263499
   1.70787     -6.286820
   1.66815     -6.306856
   1.62844     -6.323033
   1.58872     -6.334914
   1.54900     -6.342186
   1.50928     -6.344666
   1.50928     -6.344666
   1.46957     -6.342117
   1.42985     -6.334800
   1.39013     -6.322890
   1.35041     -6.306686
   1.31069     -6.286621
   1.27097     -6.263267
   1.23126     -6.237307
   1.19154     -6.209534
   1.15182     -6.180839
   1.11210     -6.152207
   1.07238     -6.124713
   1.03267     -6.099523
   0.99295     -6.077926
   0.95323     -6.061360
   0.91351     -6.051476
   0.87379     -6.050165
   0.83408     -6.059387
   0.79436     -6.079898
   0.75464     -6.098763
   0.75464     -6.098763
   0.71492     -6.096831
   0.67520     -6.090991
   0.63549     -6.080973
   0.59577     -6.065233
   0.55605     -6.029467
   0.51633     -5.971668
   0.47662     -5.904661
   0.43690     -5.830684
   0.39718     -5.752178
   0.35746     -5.672124
   0.31774     -5.593358
   0.27803     -5.521757
   0.23831     -5.464374
   0.19859     -5.427276
   0.15887     -5.414393
   0.11915     -5.425240
   0.07944     -5.454570
   0.03972     -5.491673
   0.00000     -5.512696
 
# Band-Index:   29
   0.00000     -5.190058
   0.03972     -5.186122
   0.07944     -5.174860
   0.11915     -5.156898
   0.15887     -5.131193
   0.19859     -5.095432
   0.23831     -5.048669
   0.27803     -4.991968
   0.31774     -4.927173
   0.35746     -4.856207
   0.39718     -4.781023
   0.43690     -4.703715
   0.47662     -4.626642
   0.51633     -4.552552
   0.55605     -4.484962
   0.59577     -4.434306
   0.63549     -4.463610
   0.67520     -4.505637
   0.71492     -4.533396
   0.75464     -4.542940
   0.75464     -4.542940
   0.79436     -4.541029
   0.83408     -4.535602
   0.87379     -4.527458
   0.91351     -4.517656
   0.95323     -4.507252
   0.99295     -4.497142
   1.03267     -4.487998
   1.07238     -4.480251
   1.11210     -4.474149
   1.15182     -4.469785
   1.19154     -4.467134
   1.23126     -4.466097
   1.27097     -4.466511
   1.31069     -4.468175
   1.35041     -4.470824
   1.39013     -4.474084
   1.42985     -4.477363
   1.46957     -4.479860
   1.50928     -4.482746
   1.50928     -4.482746
   1.54900     -4.481803
   1.58872     -4.479269
   1.62844     -4.475935
   1.66815     -4.472607
   1.70787     -4.469879
   1.74759     -4.468128
   1.78731     -4.467622
   1.82703     -4.468569
   1.86674     -4.471132
   1.90646     -4.475418
   1.94618     -4.481453
   1.98590     -4.489148
   2.02562     -4.498256
   2.06533     -4.508345
   2.10505     -4.518742
   2.14477     -4.528548
   2.18449     -4.536701
   2.22421     -4.542136
   2.26392     -4.544050
   2.26392     -4.544050
   2.30364     -4.534519
   2.34336     -4.506799
   2.38308     -4.464829
   2.42280     -4.433484
   2.46251     -4.482737
   2.50223     -4.550196
   2.54195     -4.624206
   2.58167     -4.701215
   2.62139     -4.778468
   2.66110     -4.853613
   2.70082     -4.924560
   2.74054     -4.989377
   2.78026     -5.046168
   2.81998     -5.093137
   2.85969     -5.129228
   2.89941     -5.155327
   2.93913     -5.173743
   2.97885     -5.185705
   3.01857     -5.190058
 
# Band-Index:   30
   3.01857     -5.188051
   2.97885     -5.183855
   2.93913     -5.171143
   2.89941     -5.149874
   2.85969     -5.119278
   2.81998     -5.077339
   2.78026     -5.023137
   2.74054     -4.957579
   2.70082     -4.882435
   2.66110     -4.799723
   2.62139     -4.711699
   2.58167     -4.621163
   2.54195     -4.532191
   2.50223     -4.452515
   2.46251     -4.402314
   2.42280     -4.405107
   2.38308     -4.377097
   2.34336     -4.358301
   2.30364     -4.359105
   2.26392     -4.362130
   2.26392     -4.362130
   2.22421     -4.360309
   2.18449     -4.355144
   2.14477     -4.347415
   2.10505     -4.338182
   2.06533     -4.328536
   2.02562     -4.319445
   1.98590     -4.311669
   1.94618     -4.305741
   1.90646     -4.302031
   1.86674     -4.300810
   1.82703     -4.302417
   1.78731     -4.307617
   1.74759     -4.318496
   1.70787     -4.339884
   1.66815     -4.375299
   1.62844     -4.416175
   1.58872     -4.450789
   1.54900     -4.473120
   1.50928     -4.480772
   1.50928     -4.480772
   1.46957     -4.475105
   1.42985     -4.452818
   1.39013     -4.418268
   1.35041     -4.377471
   1.31069     -4.342098
   1.27097     -4.320662
   1.23126     -4.309691
   1.19154     -4.304394
   1.15182     -4.302692
   1.11210     -4.303827
   1.07238     -4.307463
   1.03267     -4.313330
   0.99295     -4.321059
   0.95323     -4.330120
   0.91351     -4.339747
   0.87379     -4.348973
   0.83408     -4.356702
   0.79436     -4.361871
   0.75464     -4.363694
   0.75464     -4.363694
   0.71492     -4.360730
   0.67520     -4.360142
   0.63549     -4.379117
   0.59577     -4.404910
   0.55605     -4.400259
   0.51633     -4.450156
   0.47662     -4.529740
   0.43690     -4.618650
   0.39718     -4.709134
   0.35746     -4.797118
   0.31774     -4.879813
   0.27803     -4.954979
   0.23831     -5.020628
   0.19859     -5.075033
   0.15887     -5.117299
   0.11915     -5.148289
   0.07944     -5.170017
   0.03972     -5.183435
   0.00000     -5.188051
 
# Band-Index:   31
   0.00000     -3.803750
   0.03972     -3.803708
   0.07944     -3.802760
   0.11915     -3.799579
   0.15887     -3.793054
   0.19859     -3.782653
   0.23831     -3.768553
   0.27803     -3.751714
   0.31774     -3.735306
   0.35746     -3.741029
   0.39718     -3.801818
   0.43690     -3.902925
   0.47662     -4.015560
   0.51633     -4.117814
   0.55605     -4.184199
   0.59577     -4.186817
   0.63549     -4.207713
   0.67520     -4.236303
   0.71492     -4.241658
   0.75464     -4.240629
   0.75464     -4.240629
   0.79436     -4.235857
   0.83408     -4.221656
   0.87379     -4.198315
   0.91351     -4.166411
   0.95323     -4.126966
   0.99295     -4.081816
   1.03267     -4.034392
   1.07238     -3.991461
   1.11210     -3.965742
   1.15182     -3.973481
   1.19154     -4.018543
   1.23126     -4.086091
   1.27097     -4.157137
   1.31069     -4.215680
   1.35041     -4.251663
   1.39013     -4.269604
   1.42985     -4.278601
   1.46957     -4.283037
   1.50928     -4.284389
   1.50928     -4.284389
   1.54900     -4.280702
   1.58872     -4.276268
   1.62844     -4.267331
   1.66815     -4.249466
   1.70787     -4.213515
   1.74759     -4.154910
   1.78731     -4.083769
   1.82703     -4.016176
   1.86674     -3.971163
   1.90646     -3.963514
   1.94618     -3.989350
   1.98590     -4.032394
   2.02562     -4.079904
   2.06533     -4.125114
   2.10505     -4.164600
   2.14477     -4.196531
   2.18449     -4.219889
   2.22421     -4.234097
   2.26392     -4.238867
   2.26392     -4.238867
   2.30364     -4.239947
   2.34336     -4.234796
   2.38308     -4.206523
   2.42280     -4.187682
   2.46251     -4.185004
   2.50223     -4.118491
   2.54195     -4.016247
   2.58167     -3.903634
   2.62139     -3.802565
   2.66110     -3.741658
   2.70082     -3.734551
   2.74054     -3.750425
   2.78026     -3.767177
   2.81998     -3.781318
   2.85969     -3.791895
   2.89941     -3.798780
   2.93913     -3.802388
   2.97885     -3.803618
   3.01857     -3.803750
 
# Band-Index:   32
   3.01857     -3.802113
   2.97885     -3.801488
   2.93913     -3.799384
   2.89941     -3.794485
   2.85969     -3.784943
   2.81998     -3.769888
   2.78026     -3.750475
   2.74054     -3.730130
   2.70082     -3.714652
   2.66110     -3.702558
   2.62139     -3.694923
   2.58167     -3.748655
   2.54195     -3.851253
   2.50223     -3.958455
   2.46251     -4.055899
   2.42280     -4.132723
   2.38308     -4.131274
   2.34336     -4.091156
   2.30364     -4.062628
   2.26392     -4.052583
   2.26392     -4.052583
   2.22421     -4.048805
   2.18449     -4.037601
   2.14477     -4.019350
   2.10505     -3.994796
   2.06533     -3.965215
   2.02562     -3.932780
   1.98590     -3.901149
   1.94618     -3.876443
   1.90646     -3.868094
   1.86674     -3.886411
   1.82703     -3.931677
   1.78731     -3.992676
   1.74759     -4.058657
   1.70787     -4.122258
   1.66815     -4.178530
   1.62844     -4.224263
   1.58872     -4.257569
   1.54900     -4.277606
   1.50928     -4.281972
   1.50928     -4.281972
   1.46957     -4.275218
   1.42985     -4.255086
   1.39013     -4.221701
   1.35041     -4.175873
   1.31069     -4.119489
   1.27097     -4.055770
   1.23126     -3.989696
   1.19154     -3.928696
   1.15182     -3.883559
   1.11210     -3.865442
   1.07238     -3.874047
   1.03267     -3.898993
   0.99295     -3.930806
   0.95323     -3.963370
   0.91351     -3.993043
   0.87379     -4.017663
   0.83408     -4.035960
   0.79436     -4.047193
   0.75464     -4.050985
   0.75464     -4.050985
   0.71492     -4.061036
   0.67520     -4.089584
   0.63549     -4.129886
   0.59577     -4.133553
   0.55605     -4.057122
   0.51633     -3.959738
   0.47662     -3.852586
   0.43690     -3.750045
   0.39718     -3.696316
   0.35746     -3.703680
   0.31774     -3.714170
   0.27803     -3.728986
   0.23831     -3.749188
   0.19859     -3.768611
   0.15887     -3.783820
   0.11915     -3.793702
   0.07944     -3.799011
   0.03972     -3.801390
   0.00000     -3.802113
 
# Band-Index:   33
   0.00000     -3.680450
   0.03972     -3.681014
   0.07944     -3.680197
   0.11915     -3.675969
   0.15887     -3.666730
   0.19859     -3.651835
   0.23831     -3.632557
   0.27803     -3.612227
   0.31774     -3.595354
   0.35746     -3.587442
   0.39718     -3.619374
   0.43690     -3.631557
   0.47662     -3.612624
   0.51633     -3.589210
   0.55605     -3.566183
   0.59577     -3.545305
   0.63549     -3.527744
   0.67520     -3.514441
   0.71492     -3.506130
   0.75464     -3.503305
   0.75464     -3.503305
   0.79436     -3.505550
   0.83408     -3.511887
   0.87379     -3.521206
   0.91351     -3.532118
   0.95323     -3.543452
   0.99295     -3.554846
   1.03267     -3.567202
   1.07238     -3.581591
   1.11210     -3.593348
   1.15182     -3.586709
   1.19154     -3.551708
   1.23126     -3.496851
   1.27097     -3.433014
   1.31069     -3.365670
   1.35041     -3.296775
   1.39013     -3.227610
   1.42985     -3.160783
   1.46957     -3.101443
   1.50928     -3.057631
   1.50928     -3.057631
   1.54900     -3.101212
   1.58872     -3.160392
   1.62844     -3.227089
   1.66815     -3.296171
   1.70787     -3.365018
   1.74759     -3.432327
   1.78731     -3.496134
   1.82703     -3.550969
   1.86674     -3.585947
   1.90646     -3.592545
   1.94618     -3.580704
   1.98590     -3.566167
   2.02562     -3.553673
   2.06533     -3.542192
   2.10505     -3.530806
   2.14477     -3.519862
   2.18449     -3.510524
   2.22421     -3.504175
   2.26392     -3.501925
   2.26392     -3.501925
   2.30364     -3.504748
   2.34336     -3.513054
   2.38308     -3.526348
   2.42280     -3.543898
   2.46251     -3.564761
   2.50223     -3.587768
   2.54195     -3.611155
   2.58167     -3.630047
   2.62139     -3.617833
   2.66110     -3.587583
   2.70082     -3.596857
   2.74054     -3.613626
   2.78026     -3.633529
   2.81998     -3.652144
   2.85969     -3.666538
   2.89941     -3.675561
   2.93913     -3.679796
   2.97885     -3.680785
   3.01857     -3.680450
 
# Band-Index:   34
   3.01857     -3.678623
   2.97885     -3.676916
   2.93913     -3.672894
   2.89941     -3.666107
   2.85969     -3.655493
   2.81998     -3.640114
   2.78026     -3.619835
   2.74054     -3.597072
   2.70082     -3.579209
   2.66110     -3.578749
   2.62139     -3.567492
   2.58167     -3.545025
   2.54195     -3.518591
   2.50223     -3.491399
   2.46251     -3.465468
   2.42280     -3.442268
   2.38308     -3.422958
   2.34336     -3.408473
   2.30364     -3.399495
   2.26392     -3.396456
   2.26392     -3.396456
   2.22421     -3.399637
   2.18449     -3.408585
   2.14477     -3.421678
   2.10505     -3.436798
   2.06533     -3.451731
   2.02562     -3.464321
   1.98590     -3.472183
   1.94618     -3.472442
   1.90646     -3.462427
   1.86674     -3.440946
   1.82703     -3.409424
   1.78731     -3.371098
   1.74759     -3.326484
   1.70787     -3.274921
   1.66815     -3.216890
   1.62844     -3.153506
   1.58872     -3.086427
   1.54900     -3.037126
   1.50928     -3.057111
   1.50928     -3.057111
   1.46957     -3.036937
   1.42985     -3.086244
   1.39013     -3.153248
   1.35041     -3.216603
   1.31069     -3.274644
   1.27097     -3.326214
   1.23126     -3.370756
   1.19154     -3.408890
   1.15182     -3.440221
   1.11210     -3.461530
   1.07238     -3.471330
   1.03267     -3.470853
   0.99295     -3.462847
   0.95323     -3.450191
   0.91351     -3.435233
   0.87379     -3.420105
   0.83408     -3.407008
   0.79436     -3.398059
   0.75464     -3.394880
   0.75464     -3.394880
   0.71492     -3.397916
   0.67520     -3.406892
   0.63549     -3.421375
   0.59577     -3.440680
   0.55605     -3.463871
   0.51633     -3.489786
   0.47662     -3.516960
   0.43690     -3.543386
   0.39718     -3.565910
   0.35746     -3.578933
   0.31774     -3.580800
   0.27803     -3.598540
   0.23831     -3.620841
   0.19859     -3.640435
   0.15887     -3.655308
   0.11915     -3.665711
   0.07944     -3.672509
   0.03972     -3.676702
   0.00000     -3.678623
 
# Band-Index:   35
   0.00000     -3.142398
   0.03972     -3.135551
   0.07944     -3.115905
   0.11915     -3.093408
   0.15887     -3.068120
   0.19859     -3.039718
   0.23831     -3.010992
   0.27803     -2.995372
   0.31774     -3.093769
   0.35746     -3.196008
   0.39718     -3.235094
   0.43690     -3.219233
   0.47662     -3.172526
   0.51633     -3.109288
   0.55605     -3.035936
   0.59577     -2.956071
   0.63549     -2.874552
   0.67520     -2.811377
   0.71492     -2.789147
   0.75464     -2.784252
   0.75464     -2.784252
   0.79436     -2.791984
   0.83408     -2.815070
   0.87379     -2.853227
   0.91351     -2.906073
   0.95323     -2.974344
   0.99295     -3.062096
   1.03267     -3.162471
   1.07238     -3.255558
   1.11210     -3.323647
   1.15182     -3.354815
   1.19154     -3.348013
   1.23126     -3.310358
   1.27097     -3.253079
   1.31069     -3.187430
   1.35041     -3.123671
   1.39013     -3.071929
   1.42985     -3.040723
   1.46957     -3.016147
   1.50928     -2.952730
   1.50928     -2.952730
   1.54900     -3.016148
   1.58872     -3.040771
   1.62844     -3.071831
   1.66815     -3.123387
   1.70787     -3.187009
   1.74759     -3.252581
   1.78731     -3.309762
   1.82703     -3.347223
   1.86674     -3.353811
   1.90646     -3.322396
   1.94618     -3.254046
   1.98590     -3.160978
   2.02562     -3.061759
   2.06533     -2.976570
   2.10505     -2.909813
   2.14477     -2.857678
   2.18449     -2.819922
   2.22421     -2.797058
   2.26392     -2.789401
   2.26392     -2.789401
   2.30364     -2.794087
   2.34336     -2.814794
   2.38308     -2.875749
   2.42280     -2.956996
   2.46251     -3.036860
   2.50223     -3.110236
   2.54195     -3.173499
   2.58167     -3.220239
   2.62139     -3.236137
   2.66110     -3.197036
   2.70082     -3.094823
   2.74054     -3.002112
   2.78026     -3.020687
   2.81998     -3.050180
   2.85969     -3.079128
   2.89941     -3.104786
   2.93913     -3.124992
   2.97885     -3.137943
   3.01857     -3.142398
 
# Band-Index:   36
   3.01857     -3.130244
   2.97885     -3.123423
   2.93913     -3.103646
   2.89941     -3.072815
   2.85969     -3.033596
   2.81998     -2.989148
   2.78026     -2.943274
   2.74054     -2.923101
   2.70082     -2.946054
   2.66110     -3.051272
   2.62139     -3.107735
   2.58167     -3.109295
   2.54195     -3.074540
   2.50223     -3.019134
   2.46251     -2.951795
   2.42280     -2.878921
   2.38308     -2.812974
   2.34336     -2.756445
   2.30364     -2.685417
   2.26392     -2.648872
   2.26392     -2.648872
   2.22421     -2.657623
   2.18449     -2.687226
   2.14477     -2.742650
   2.10505     -2.821733
   2.06533     -2.914626
   2.02562     -3.004274
   1.98590     -3.078418
   1.94618     -3.136425
   1.90646     -3.173917
   1.86674     -3.187107
   1.82703     -3.176861
   1.78731     -3.147472
   1.74759     -3.104421
   1.70787     -3.053180
   1.66815     -2.998680
   1.62844     -2.945780
   1.58872     -2.904150
   1.54900     -2.905422
   1.50928     -2.952224
   1.50928     -2.952224
   1.46957     -2.905302
   1.42985     -2.903985
   1.39013     -2.945590
   1.35041     -2.998351
   1.31069     -3.052714
   1.27097     -3.103857
   1.23126     -3.146832
   1.19154     -3.176123
   1.15182     -3.186199
   1.11210     -3.172731
   1.07238     -3.134908
   1.03267     -3.076802
   0.99295     -3.003673
   0.95323     -2.916453
   0.91351     -2.824936
   0.87379     -2.746341
   0.83408     -2.690898
   0.79436     -2.661010
   0.75464     -2.652103
   0.75464     -2.652103
   0.71492     -2.686075
   0.67520     -2.754481
   0.63549     -2.810549
   0.59577     -2.878530
   0.55605     -2.952028
   0.51633     -3.019544
   0.47662     -3.074996
   0.43690     -3.109751
   0.39718     -3.108217
   0.35746     -3.051913
   0.31774     -2.944672
   0.27803     -2.924265
   0.23831     -2.953213
   0.19859     -2.999711
   0.15887     -3.044653
   0.11915     -3.084215
   0.07944     -3.112741
   0.03972     -3.125817
   0.00000     -3.130244
 
# Band-Index:   37
   0.00000     -2.023596
   0.03972     -2.046222
   0.07944     -2.106512
   0.11915     -2.220825
   0.15887     -2.379556
   0.19859     -2.560258
   0.23831     -2.744259
   0.27803     -2.892890
   0.31774     -2.935634
   0.35746     -2.910823
   0.39718     -2.884966
   0.43690     -2.860556
   0.47662     -2.837989
   0.51633     -2.817160
   0.55605     -2.797447
   0.59577     -2.776366
   0.63549     -2.742436
   0.67520     -2.675567
   0.71492     -2.598451
   0.75464     -2.574736
   0.75464     -2.574736
   0.79436     -2.577135
   0.83408     -2.585058
   0.87379     -2.597872
   0.91351     -2.613907
   0.95323     -2.632794
   0.99295     -2.654375
   1.03267     -2.678001
   1.07238     -2.702601
   1.11210     -2.726971
   1.15182     -2.750003
   1.19154     -2.770833
   1.23126     -2.788909
   1.27097     -2.803971
   1.31069     -2.816043
   1.35041     -2.825488
   1.39013     -2.833248
   1.42985     -2.839080
   1.46957     -2.825480
   1.50928     -2.796978
   1.50928     -2.796978
   1.54900     -2.825526
   1.58872     -2.839392
   1.62844     -2.833892
   1.66815     -2.826301
   1.70787     -2.816941
   1.74759     -2.804914
   1.78731     -2.789877
   1.82703     -2.771817
   1.86674     -2.750996
   1.90646     -2.727968
   1.94618     -2.703598
   1.98590     -2.678994
   2.02562     -2.655363
   2.06533     -2.633779
   2.10505     -2.614899
   2.14477     -2.598883
   2.18449     -2.586123
   2.22421     -2.578319
   2.26392     -2.575997
   2.26392     -2.575997
   2.30364     -2.597650
   2.34336     -2.675383
   2.38308     -2.744604
   2.42280     -2.781238
   2.46251     -2.803324
   2.50223     -2.823603
   2.54195     -2.844915
   2.58167     -2.867965
   2.62139     -2.892879
   2.66110     -2.919252
   2.70082     -2.941481
   2.74054     -2.889001
   2.78026     -2.745756
   2.81998     -2.561553
   2.85969     -2.380749
   2.89941     -2.221850
   2.93913     -2.107183
   2.97885     -2.046484
   3.01857     -2.023596
 
# Band-Index:   38
   3.01857     -2.022531
   2.97885     -2.023037
   2.93913     -2.055060
   2.89941     -2.140179
   2.85969     -2.274319
   2.81998     -2.436034
   2.78026     -2.607501
   2.74054     -2.771210
   2.70082     -2.831823
   2.66110     -2.795450
   2.62139     -2.757438
   2.58167     -2.722713
   2.54195     -2.691958
   2.50223     -2.665260
   2.46251     -2.642571
   2.42280     -2.623766
   2.38308     -2.608608
   2.34336     -2.596313
   2.30364     -2.580067
   2.26392     -2.539268
   2.26392     -2.539268
   2.22421     -2.541910
   2.18449     -2.548797
   2.14477     -2.558333
   2.10505     -2.570656
   2.06533     -2.586261
   2.02562     -2.604959
   1.98590     -2.625998
   1.94618     -2.648294
   1.90646     -2.670675
   1.86674     -2.692050
   1.82703     -2.711529
   1.78731     -2.728478
   1.74759     -2.742517
   1.70787     -2.753496
   1.66815     -2.761490
   1.62844     -2.766955
   1.58872     -2.771285
   1.54900     -2.778365
   1.50928     -2.796581
   1.50928     -2.796581
   1.46957     -2.778489
   1.42985     -2.771599
   1.39013     -2.767450
   1.35041     -2.762086
   1.31069     -2.754139
   1.27097     -2.743177
   1.23126     -2.729139
   1.19154     -2.712185
   1.15182     -2.692697
   1.11210     -2.671311
   1.07238     -2.648920
   1.03267     -2.626615
   0.99295     -2.605573
   0.95323     -2.586881
   0.91351     -2.571304
   0.87379     -2.559054
   0.83408     -2.549667
   0.79436     -2.542934
   0.75464     -2.540330
   0.75464     -2.540330
   0.71492     -2.582143
   0.67520     -2.600485
   0.63549     -2.613462
   0.59577     -2.629023
   0.55605     -2.648182
   0.51633     -2.671242
   0.47662     -2.698350
   0.43690     -2.729560
   0.39718     -2.764773
   0.35746     -2.803235
   0.31774     -2.839297
   0.27803     -2.772284
   0.23831     -2.608264
   0.19859     -2.436802
   0.15887     -2.275052
   0.11915     -2.140763
   0.07944     -2.055377
   0.03972     -2.023138
   0.00000     -2.022531
 
# Band-Index:   39
   0.00000     -1.713901
   0.03972     -1.732923
   0.07944     -1.774509
   0.11915     -1.793494
   0.15887     -1.778961
   0.19859     -1.744105
   0.23831     -1.701411
   0.27803     -1.664782
   0.31774     -1.647815
   0.35746     -1.655176
   0.39718     -1.685138
   0.43690     -1.735317
   0.47662     -1.803324
   0.51633     -1.886214
   0.55605     -1.980502
   0.59577     -2.082474
   0.63549     -2.188293
   0.67520     -2.293447
   0.71492     -2.389213
   0.75464     -2.439751
   0.75464     -2.439751
   0.79436     -2.438441
   0.83408     -2.430325
   0.87379     -2.411635
   0.91351     -2.384741
   0.95323     -2.354436
   0.99295     -2.325433
   1.03267     -2.301806
   1.07238     -2.286893
   1.11210     -2.283239
   1.15182     -2.292502
   1.19154     -2.315385
   1.23126     -2.351668
   1.27097     -2.400291
   1.31069     -2.459403
   1.35041     -2.525950
   1.39013     -2.594581
   1.42985     -2.655915
   1.46957     -2.696374
   1.50928     -2.709205
   1.50928     -2.709205
   1.54900     -2.695603
   1.58872     -2.655263
   1.62844     -2.594106
   1.66815     -2.525773
   1.70787     -2.459609
   1.74759     -2.400834
   1.78731     -2.352436
   1.82703     -2.316290
   1.86674     -2.293494
   1.90646     -2.284289
   1.94618     -2.287983
   1.98590     -2.302922
   2.02562     -2.326557
   2.06533     -2.355543
   2.10505     -2.385778
   2.14477     -2.412492
   2.18449     -2.430802
   2.22421     -2.438379
   2.26392     -2.439392
   2.26392     -2.439392
   2.30364     -2.389535
   2.34336     -2.294166
   2.38308     -2.189121
   2.42280     -2.083309
   2.46251     -1.981287
   2.50223     -1.886897
   2.54195     -1.803853
   2.58167     -1.735659
   2.62139     -1.685303
   2.66110     -1.655214
   2.70082     -1.647754
   2.74054     -1.664554
   2.78026     -1.700972
   2.81998     -1.743623
   2.85969     -1.778643
   2.89941     -1.793477
   2.93913     -1.774948
   2.97885     -1.733927
   3.01857     -1.713901
 
# Band-Index:   40
   3.01857     -1.712373
   2.97885     -1.724769
   2.93913     -1.747040
   2.89941     -1.752348
   2.85969     -1.731396
   2.81998     -1.690779
   2.78026     -1.642103
   2.74054     -1.603346
   2.70082     -1.591378
   2.66110     -1.606089
   2.62139     -1.641780
   2.58167     -1.695088
   2.54195     -1.763645
   2.50223     -1.845061
   2.46251     -1.936679
   2.42280     -2.035581
   2.38308     -2.138616
   2.34336     -2.242104
   2.30364     -2.339185
   2.26392     -2.395406
   2.26392     -2.395406
   2.22421     -2.389175
   2.18449     -2.372712
   2.14477     -2.349228
   2.10505     -2.321583
   2.06533     -2.292986
   2.02562     -2.266966
   1.98590     -2.247039
   1.94618     -2.236362
   1.90646     -2.237442
   1.86674     -2.251891
   1.82703     -2.280243
   1.78731     -2.321884
   1.74759     -2.375062
   1.70787     -2.436981
   1.66815     -2.504073
   1.62844     -2.572311
   1.58872     -2.636544
   1.54900     -2.687872
   1.50928     -2.708364
   1.50928     -2.708364
   1.46957     -2.687127
   1.42985     -2.635966
   1.39013     -2.571932
   1.35041     -2.503996
   1.31069     -2.437283
   1.27097     -2.375694
   1.23126     -2.322730
   1.19154     -2.281214
   1.15182     -2.252936
   1.11210     -2.238530
   1.07238     -2.237474
   1.03267     -2.248163
   0.99295     -2.268089
   0.95323     -2.294096
   0.91351     -2.322669
   0.87379     -2.350278
   0.83408     -2.373718
   0.79436     -2.390127
   0.75464     -2.396324
   0.75464     -2.396324
   0.71492     -2.340040
   0.67520     -2.242941
   0.63549     -2.139431
   0.59577     -2.036358
   0.55605     -1.937391
   0.51633     -1.845668
   0.47662     -1.764106
   0.43690     -1.695379
   0.39718     -1.641932
   0.35746     -1.606208
   0.31774     -1.591634
   0.27803     -1.603802
   0.23831     -1.642430
   0.19859     -1.690932
   0.15887     -1.731637
   0.11915     -1.752856
   0.07944     -1.747882
   0.03972     -1.725936
   0.00000     -1.712373
 
# Band-Index:   41
   0.00000     -1.546743
   0.03972     -1.555938
   0.07944     -1.554065
   0.11915     -1.542269
   0.15887     -1.524202
   0.19859     -1.501153
   0.23831     -1.477128
   0.27803     -1.441000
   0.31774     -1.375970
   0.35746     -1.282482
   0.39718     -1.169020
   0.43690     -1.042540
   0.47662     -0.908770
   0.51633     -0.773568
   0.55605     -0.643893
   0.59577     -0.528483
   0.63549     -0.467914
   0.67520     -0.458204
   0.71492     -0.452653
   0.75464     -0.450820
   0.75464     -0.450820
   0.79436     -0.471106
   0.83408     -0.551774
   0.87379     -0.630858
   0.91351     -0.705730
   0.95323     -0.776152
   0.99295     -0.842401
   1.03267     -0.904706
   1.07238     -0.962975
   1.11210     -1.016836
   1.15182     -1.065774
   1.19154     -1.109305
   1.23126     -1.147114
   1.27097     -1.179076
   1.31069     -1.205281
   1.35041     -1.225977
   1.39013     -1.241520
   1.42985     -1.252280
   1.46957     -1.258620
   1.50928     -1.266978
   1.50928     -1.266977
   1.54900     -1.264920
   1.58872     -1.258608
   1.62844     -1.247841
   1.66815     -1.232288
   1.70787     -1.211581
   1.74759     -1.185362
   1.78731     -1.153382
   1.82703     -1.115548
   1.86674     -1.071983
   1.90646     -1.022999
   1.94618     -0.969078
   1.98590     -0.910728
   2.02562     -0.848317
   2.06533     -0.781931
   2.10505     -0.711336
   2.14477     -0.636253
   2.18449     -0.556927
   2.22421     -0.475935
   2.26392     -0.450470
   2.26392     -0.450470
   2.30364     -0.452258
   2.34336     -0.457772
   2.38308     -0.467477
   2.42280     -0.524669
   2.46251     -0.638981
   2.50223     -0.768264
   2.54195     -0.903411
   2.58167     -1.037359
   2.62139     -1.164218
   2.66110     -1.278304
   2.70082     -1.372831
   2.74054     -1.439378
   2.78026     -1.476719
   2.81998     -1.501238
   2.85969     -1.524142
   2.89941     -1.542128
   2.93913     -1.553902
   2.97885     -1.555801
   3.01857     -1.546743
 
# Band-Index:   42
   3.01857     -1.545943
   2.97885     -1.535586
   2.93913     -1.528101
   2.89941     -1.519924
   2.85969     -1.508864
   2.81998     -1.493451
   2.78026     -1.463520
   2.74054     -1.410654
   2.70082     -1.331101
   2.66110     -1.228289
   2.62139     -1.109372
   2.58167     -0.980357
   2.54195     -0.846681
   2.50223     -0.714480
   2.46251     -0.591667
   2.42280     -0.489330
   2.38308     -0.430390
   2.34336     -0.388743
   2.30364     -0.409089
   2.26392     -0.417430
   2.26392     -0.417430
   2.22421     -0.456970
   2.18449     -0.477006
   2.14477     -0.504796
   2.10505     -0.536352
   2.06533     -0.569241
   2.02562     -0.602984
   1.98590     -0.638456
   1.94618     -0.677148
   1.90646     -0.720609
   1.86674     -0.770073
   1.82703     -0.826162
   1.78731     -0.888693
   1.74759     -0.956468
   1.70787     -1.027106
   1.66815     -1.096949
   1.62844     -1.161085
   1.58872     -1.213600
   1.54900     -1.248392
   1.50928     -1.260620
   1.50928     -1.260620
   1.46957     -1.254691
   1.42985     -1.219884
   1.39013     -1.167291
   1.35041     -1.103067
   1.31069     -1.033135
   1.27097     -0.962407
   1.23126     -0.894532
   1.19154     -0.831878
   1.15182     -0.775623
   1.11210     -0.725929
   1.07238     -0.682152
   1.03267     -0.643043
   0.99295     -0.607044
   0.95323     -0.572662
   0.91351     -0.539040
   0.87379     -0.506705
   0.83408     -0.478185
   0.79436     -0.457510
   0.75464     -0.412506
   0.75464     -0.412506
   0.71492     -0.404123
   0.67520     -0.384486
   0.63549     -0.432469
   0.59577     -0.487346
   0.55605     -0.587482
   0.51633     -0.709866
   0.47662     -0.841984
   0.43690     -0.975794
   0.39718     -1.105114
   0.35746     -1.224517
   0.31774     -1.328091
   0.27803     -1.408763
   0.23831     -1.462750
   0.19859     -1.493321
   0.15887     -1.508700
   0.11915     -1.519739
   0.07944     -1.527931
   0.03972     -1.535458
   0.00000     -1.545943
 
# Band-Index:   43
   0.00000     -0.633623
   0.03972     -0.631562
   0.07944     -0.625948
   0.11915     -0.617929
   0.15887     -0.608391
   0.19859     -0.597807
   0.23831     -0.586465
   0.27803     -0.574648
   0.31774     -0.562597
   0.35746     -0.550474
   0.39718     -0.538266
   0.43690     -0.525850
   0.47662     -0.513135
   0.51633     -0.500160
   0.55605     -0.487057
   0.59577     -0.470972
   0.63549     -0.407437
   0.67520     -0.372720
   0.71492     -0.345467
   0.75464     -0.338078
   0.75464     -0.338078
   0.79436     -0.301989
   0.83408     -0.309862
   0.87379     -0.324668
   0.91351     -0.344581
   0.95323     -0.369119
   0.99295     -0.397698
   1.03267     -0.429272
   1.07238     -0.462190
   1.11210     -0.494546
   1.15182     -0.524529
   1.19154     -0.550717
   1.23126     -0.572246
   1.27097     -0.588815
   1.31069     -0.600674
   1.35041     -0.608463
   1.39013     -0.613089
   1.42985     -0.615505
   1.46957     -0.616560
   1.50928     -0.616821
   1.50928     -0.616821
   1.54900     -0.611174
   1.58872     -0.608684
   1.62844     -0.606280
   1.66815     -0.601702
   1.70787     -0.593976
   1.74759     -0.582192
   1.78731     -0.565707
   1.82703     -0.544273
   1.86674     -0.518193
   1.90646     -0.488333
   1.94618     -0.456126
   1.98590     -0.423391
   2.02562     -0.392046
   2.06533     -0.363736
   2.10505     -0.339494
   2.14477     -0.319873
   2.18449     -0.305332
   2.22421     -0.298470
   2.26392     -0.341458
   2.26392     -0.341458
   2.30364     -0.348629
   2.34336     -0.374441
   2.38308     -0.409557
   2.42280     -0.471763
   2.46251     -0.486674
   2.50223     -0.499734
   2.54195     -0.512704
   2.58167     -0.525423
   2.62139     -0.537849
   2.66110     -0.550073
   2.70082     -0.562214
   2.74054     -0.574287
   2.78026     -0.586130
   2.81998     -0.597502
   2.85969     -0.608117
   2.89941     -0.617691
   2.93913     -0.625747
   2.97885     -0.631393
   3.01857     -0.633623
 
# Band-Index:   44
   3.01857     -0.633464
   2.97885     -0.607040
   2.93913     -0.539375
   2.89941     -0.453674
   2.85969     -0.367847
   2.81998     -0.291652
   2.78026     -0.229161
   2.74054     -0.181437
   2.70082     -0.148330
   2.66110     -0.129543
   2.62139     -0.124937
   2.58167     -0.134468
   2.54195     -0.157723
   2.50223     -0.193253
   2.46251     -0.237960
   2.42280     -0.286684
   2.38308     -0.330855
   2.34336     -0.333824
   2.30364     -0.302871
   2.26392     -0.291266
   2.26392     -0.291266
   2.22421     -0.278337
   2.18449     -0.195804
   2.14477     -0.111198
   2.10505     -0.033324
   2.06533     -0.073263
   2.02562     -0.148428
   1.98590     -0.210642
   1.94618     -0.261897
   1.90646     -0.305487
   1.86674     -0.344702
   1.82703     -0.382216
   1.78731     -0.419789
   1.74759     -0.458065
   1.70787     -0.496528
   1.66815     -0.533582
   1.62844     -0.566819
   1.58872     -0.593395
   1.54900     -0.609232
   1.50928     -0.609870
   1.50928     -0.609870
   1.46957     -0.603821
   1.42985     -0.586528
   1.39013     -0.559947
   1.35041     -0.526742
   1.31069     -0.489740
   1.27097     -0.451344
   1.23126     -0.413153
   1.19154     -0.375690
   1.15182     -0.338315
   1.11210     -0.299276
   1.07238     -0.255904
   1.03267     -0.204909
   0.99295     -0.142984
   0.95323     -0.068126
   0.91351     -0.030459
   0.87379     -0.108355
   0.83408     -0.192581
   0.79436     -0.275619
   0.75464     -0.295443
   0.75464     -0.295443
   0.71492     -0.306899
   0.67520     -0.335850
   0.63549     -0.327161
   0.59577     -0.282587
   0.55605     -0.234079
   0.51633     -0.189706
   0.47662     -0.154543
   0.43690     -0.131653
   0.39718     -0.122460
   0.35746     -0.127372
   0.31774     -0.146435
   0.27803     -0.179795
   0.23831     -0.227759
   0.19859     -0.290488
   0.15887     -0.366926
   0.11915     -0.453002
   0.07944     -0.538946
   0.03972     -0.606808
   0.00000     -0.633464
 
# Band-Index:   45
   0.00000      0.741569
   0.03972      0.744621
   0.07944      0.758656
   0.11915      0.781286
   0.15887      0.810718
   0.19859      0.844005
   0.23831      0.849996
   0.27803      0.780681
   0.31774      0.705220
   0.35746      0.627011
   0.39718      0.549224
   0.43690      0.475358
   0.47662      0.409488
   0.51633      0.356721
   0.55605      0.323357
   0.59577      0.316073
   0.63549      0.337852
   0.67520      0.380760
   0.71492      0.423738
   0.75464      0.441907
   0.75464      0.441907
   0.79436      0.379007
   0.83408      0.259735
   0.87379      0.138953
   0.91351      0.035257
   0.95323      0.062206
   0.99295      0.142897
   1.03267      0.226383
   1.07238      0.311579
   1.11210      0.396755
   1.15182      0.478994
   1.19154      0.554862
   1.23126      0.621110
   1.27097      0.675460
   1.31069      0.717216
   1.35041      0.747142
   1.39013      0.767103
   1.42985      0.779293
   1.46957      0.785706
   1.50928      0.787556
   1.50928      0.787556
   1.54900      0.785441
   1.58872      0.778992
   1.62844      0.766758
   1.66815      0.746739
   1.70787      0.716745
   1.74759      0.674913
   1.78731      0.620482
   1.82703      0.554145
   1.86674      0.478176
   1.90646      0.395818
   1.94618      0.310489
   1.98590      0.225096
   2.02562      0.141354
   2.06533      0.060337
   2.10505      0.031019
   2.14477      0.134496
   2.18449      0.255330
   2.22421      0.374357
   2.26392      0.436806
   2.26392      0.436806
   2.30364      0.418826
   2.34336      0.376326
   2.38308      0.334081
   2.42280      0.312990
   2.46251      0.320845
   2.50223      0.354627
   2.54195      0.407695
   2.58167      0.473791
   2.62139      0.547837
   2.66110      0.625776
   2.70082      0.704116
   2.74054      0.779697
   2.78026      0.849126
   2.81998      0.843934
   2.85969      0.810758
   2.89941      0.781355
   2.93913      0.758670
   2.97885      0.744643
   3.01857      0.741579
 
# Band-Index:   46
   3.01857      0.741638
   2.97885      0.763509
   2.93913      0.818292
   2.89941      0.889100
   2.85969      0.934168
   2.81998      0.907542
   2.78026      0.877430
   2.74054      0.906362
   2.70082      0.926994
   2.66110      0.934574
   2.62139      0.902008
   2.58167      0.836449
   2.54195      0.776918
   2.50223      0.730687
   2.46251      0.703744
   2.42280      0.702236
   2.38308      0.730624
   2.34336      0.786143
   2.30364      0.813773
   2.26392      0.812011
   2.26392      0.812011
   2.22421      0.871418
   2.18449      0.862732
   2.14477      0.830989
   2.10505      0.797228
   2.06533      0.772778
   2.02562      0.762690
   1.98590      0.767355
   1.94618      0.783421
   1.90646      0.805102
   1.86674      0.825973
   1.82703      0.840908
   1.78731      0.847254
   1.74759      0.845022
   1.70787      0.836184
   1.66815      0.823569
   1.62844      0.810154
   1.58872      0.798528
   1.54900      0.790695
   1.50928      0.787825
   1.50928      0.787825
   1.46957      0.790419
   1.42985      0.798186
   1.39013      0.809720
   1.35041      0.823019
   1.31069      0.835497
   1.27097      0.844186
   1.23126      0.846267
   1.19154      0.839772
   1.15182      0.824691
   1.11210      0.803672
   1.07238      0.781818
   1.03267      0.765525
   0.99295      0.760547
   0.95323      0.770207
   0.91351      0.794090
   0.87379      0.827119
   0.83408      0.857943
   0.79436      0.866205
   0.75464      0.812460
   0.75464      0.812460
   0.71492      0.814193
   0.67520      0.781841
   0.63549      0.727198
   0.59577      0.699595
   0.55605      0.701719
   0.51633      0.729115
   0.47662      0.775674
   0.43690      0.835456
   0.39718      0.901327
   0.35746      0.934919
   0.31774      0.927342
   0.27803      0.906616
   0.23831      0.877576
   0.19859      0.908228
   0.15887      0.934333
   0.11915      0.888863
   0.07944      0.818200
   0.03972      0.763541
   0.00000      0.741633
 
# Band-Index:   47
   0.00000      1.093789
   0.03972      1.086798
   0.07944      1.068646
   0.11915      1.042440
   0.15887      1.028459
   0.19859      1.056159
   0.23831      1.090072
   0.27803      1.112112
   0.31774      1.057463
   0.35746      0.986051
   0.39718      0.944165
   0.43690      0.928468
   0.47662      0.908021
   0.51633      0.884861
   0.55605      0.862643
   0.59577      0.843890
   0.63549      0.829716
   0.67520      0.820154
   0.71492      0.841687
   0.75464      0.862692
   0.75464      0.862692
   0.79436      0.888536
   0.83408      0.996111
   0.87379      1.083811
   0.91351      1.200904
   0.95323      1.336274
   0.99295      1.482708
   1.03267      1.630418
   1.07238      1.683107
   1.11210      1.710592
   1.15182      1.746336
   1.19154      1.792990
   1.23126      1.820772
   1.27097      1.781719
   1.31069      1.755164
   1.35041      1.738431
   1.39013      1.728690
   1.42985      1.723552
   1.46957      1.721208
   1.50928      1.720635
   1.50928      1.720629
   1.54900      1.721199
   1.58872      1.723549
   1.62844      1.728698
   1.66815      1.738455
   1.70787      1.755208
   1.74759      1.781785
   1.78731      1.820860
   1.82703      1.792992
   1.86674      1.746355
   1.90646      1.710665
   1.94618      1.683311
   1.98590      1.633375
   2.02562      1.486692
   2.06533      1.340607
   2.10505      1.205590
   2.14477      1.088839
   2.18449      1.001381
   2.22421      0.887968
   2.26392      0.868312
   2.26392      0.868312
   2.30364      0.846708
   2.34336      0.819639
   2.38308      0.829149
   2.42280      0.843272
   2.46251      0.861973
   2.50223      0.884152
   2.54195      0.907306
   2.58167      0.927796
   2.62139      0.943703
   2.66110      0.986591
   2.70082      1.058008
   2.74054      1.112544
   2.78026      1.090540
   2.81998      1.056606
   2.85969      1.028423
   2.89941      1.041904
   2.93913      1.068074
   2.97885      1.086319
   3.01857      1.093789
 
# Band-Index:   48
   3.01857      1.094420
   2.97885      1.097752
   2.93913      1.105678
   2.89941      1.123788
   2.85969      1.161162
   2.81998      1.219956
   2.78026      1.206372
   2.74054      1.151286
   2.70082      1.170039
   2.66110      1.210733
   2.62139      1.256934
   2.58167      1.300610
   2.54195      1.303925
   2.50223      1.247461
   2.46251      1.171046
   2.42280      1.093317
   2.38308      1.024456
   2.34336      0.973092
   2.30364      0.950930
   2.26392      0.956387
   2.26392      0.956387
   2.22421      0.960754
   2.18449      1.039812
   2.14477      1.216413
   2.10505      1.398674
   2.06533      1.566014
   2.02562      1.637962
   1.98590      1.672242
   1.94618      1.800673
   1.90646      1.946861
   1.86674      1.949062
   1.82703      1.876512
   1.78731      1.849309
   1.74759      1.815329
   1.70787      1.780429
   1.66815      1.755630
   1.62844      1.738853
   1.58872      1.728286
   1.54900      1.722514
   1.50928      1.720643
   1.50928      1.720636
   1.46957      1.722505
   1.42985      1.728282
   1.39013      1.738858
   1.35041      1.755648
   1.31069      1.780463
   1.27097      1.815379
   1.23126      1.849297
   1.19154      1.876402
   1.15182      1.948943
   1.11210      1.944505
   1.07238      1.797251
   1.03267      1.671111
   0.99295      1.637325
   0.95323      1.566526
   0.91351      1.400189
   0.87379      1.217956
   0.83408      1.041225
   0.79436      0.955348
   0.75464      0.950524
   0.75464      0.950524
   0.71492      0.945034
   0.67520      0.967564
   0.63549      1.019241
   0.59577      1.088447
   0.55605      1.166619
   0.51633      1.243704
   0.47662      1.301604
   0.43690      1.300095
   0.39718      1.256647
   0.35746      1.210409
   0.31774      1.169655
   0.27803      1.150801
   0.23831      1.205901
   0.19859      1.219216
   0.15887      1.160615
   0.11915      1.123296
   0.07944      1.105165
   0.03972      1.097291
   0.00000      1.094419
 
# Band-Index:   49
   0.00000      1.435605
   0.03972      1.428729
   0.07944      1.408355
   0.11915      1.375244
   0.15887      1.330954
   0.19859      1.281079
   0.23831      1.307937
   0.27803      1.374783
   0.31774      1.424293
   0.35746      1.448356
   0.39718      1.445309
   0.43690      1.424030
   0.47662      1.427587
   0.51633      1.478828
   0.55605      1.542584
   0.59577      1.604877
   0.63549      1.658469
   0.67520      1.573838
   0.71492      1.427183
   0.75464      1.363768
   0.75464      1.363768
   0.79436      1.380268
   0.83408      1.425749
   0.87379      1.490221
   0.91351      1.560344
   0.95323      1.634110
   0.99295      1.770656
   1.03267      1.881984
   1.07238      1.985214
   1.11210      2.002344
   1.15182      1.981308
   1.19154      1.924040
   1.23126      1.864319
   1.27097      1.914255
   1.31069      1.979385
   1.35041      2.040869
   1.39013      2.093763
   1.42985      2.134261
   1.46957      2.159823
   1.50928      2.169595
   1.50928      2.169580
   1.54900      2.159854
   1.58872      2.134306
   1.62844      2.093812
   1.66815      2.040915
   1.70787      1.979419
   1.74759      1.914271
   1.78731      1.864241
   1.82703      1.923949
   1.86674      1.981131
   1.90646      2.002842
   1.94618      1.981089
   1.98590      1.877255
   2.02562      1.767307
   2.06533      1.633872
   2.10505      1.562530
   2.14477      1.493640
   2.18449      1.429550
   2.22421      1.383938
   2.26392      1.367264
   2.26392      1.367264
   2.30364      1.431013
   2.34336      1.578227
   2.38308      1.659129
   2.42280      1.605602
   2.46251      1.543442
   2.50223      1.479994
   2.54195      1.429768
   2.58167      1.427540
   2.62139      1.448528
   2.66110      1.450995
   2.70082      1.426391
   2.74054      1.376417
   2.78026      1.308983
   2.81998      1.281407
   2.85969      1.331221
   2.89941      1.375478
   2.93913      1.408563
   2.97885      1.428921
   3.01857      1.435606
 
# Band-Index:   50
   3.01857      1.435797
   2.97885      1.436703
   2.93913      1.440306
   2.89941      1.447141
   2.85969      1.457747
   2.81998      1.472085
   2.78026      1.489707
   2.74054      1.510296
   2.70082      1.534375
   2.66110      1.563907
   2.62139      1.601510
   2.58167      1.649348
   2.54195      1.707558
   2.50223      1.773814
   2.46251      1.843497
   2.42280      1.906648
   2.38308      1.762283
   2.34336      1.696973
   2.30364      1.677180
   2.26392      1.647858
   2.26392      1.647858
   2.22421      1.647573
   2.18449      1.649883
   2.14477      1.662876
   2.10505      1.693698
   2.06533      1.742993
   2.02562      1.823690
   1.98590      1.974329
   1.94618      1.998911
   1.90646      2.041254
   1.86674      2.005757
   1.82703      1.995398
   1.78731      2.010567
   1.74759      2.033542
   1.70787      2.062367
   1.66815      2.093873
   1.62844      2.124049
   1.58872      2.148913
   1.54900      2.165021
   1.50928      2.169635
   1.50928      2.169621
   1.46957      2.165058
   1.42985      2.148984
   1.39013      2.124153
   1.35041      2.094013
   1.31069      2.062545
   1.27097      2.033758
   1.23126      2.010820
   1.19154      1.995679
   1.15182      2.005911
   1.11210      2.041089
   1.07238      1.999690
   1.03267      1.975973
   0.99295      1.826840
   0.95323      1.747400
   0.91351      1.698247
   0.87379      1.667670
   0.83408      1.654806
   0.79436      1.652470
   0.75464      1.652719
   0.75464      1.652719
   0.71492      1.681208
   0.67520      1.696826
   0.63549      1.757672
   0.59577      1.906674
   0.55605      1.844044
   0.51633      1.774351
   0.47662      1.708065
   0.43690      1.649812
   0.39718      1.601924
   0.35746      1.564268
   0.31774      1.534688
   0.27803      1.510531
   0.23831      1.489940
   0.19859      1.472289
   0.15887      1.457935
   0.11915      1.447324
   0.07944      1.440489
   0.03972      1.436892
   0.00000      1.435795
 
# Band-Index:   51
   0.00000      2.669626
   0.03972      2.671974
   0.07944      2.681619
   0.11915      2.693337
   0.15887      2.699721
   0.19859      2.670965
   0.23831      2.574366
   0.27803      2.493146
   0.31774      2.441436
   0.35746      2.420435
   0.39718      2.426848
   0.43690      2.455165
   0.47662      2.498801
   0.51633      2.388950
   0.55605      2.173299
   0.59577      1.967741
   0.63549      1.940453
   0.67520      1.803814
   0.71492      1.748740
   0.75464      1.751059
   0.75464      1.751059
   0.79436      1.752386
   0.83408      1.758010
   0.87379      1.772399
   0.91351      1.805250
   0.95323      1.872257
   0.99295      1.973879
   1.03267      2.007627
   1.07238      2.132794
   1.11210      2.090441
   1.15182      2.121382
   1.19154      2.273378
   1.23126      2.421177
   1.27097      2.560093
   1.31069      2.685763
   1.35041      2.792558
   1.39013      2.881860
   1.42985      2.952092
   1.46957      2.997596
   1.50928      3.012997
   1.50928      3.012995
   1.54900      2.996715
   1.58872      2.950813
   1.62844      2.880399
   1.66815      2.791171
   1.70787      2.686339
   1.74759      2.562180
   1.78731      2.423655
   1.82703      2.276123
   1.86674      2.124289
   1.90646      2.088637
   1.94618      2.132057
   1.98590      2.007209
   2.02562      1.977751
   2.06533      1.875829
   2.10505      1.807489
   2.14477      1.773503
   2.18449      1.758464
   2.22421      1.752458
   2.26392      1.750988
   2.26392      1.750988
   2.30364      1.747806
   2.34336      1.798715
   2.38308      1.935014
   2.42280      1.972045
   2.46251      2.178161
   2.50223      2.393688
   2.54195      2.498738
   2.58167      2.455149
   2.62139      2.426860
   2.66110      2.420433
   2.70082      2.441488
   2.74054      2.493239
   2.78026      2.574438
   2.81998      2.671160
   2.85969      2.699551
   2.89941      2.694133
   2.93913      2.682431
   2.97885      2.671935
   3.01857      2.669659
 
# Band-Index:   52
   3.01857      2.669950
   2.97885      2.677199
   2.93913      2.693423
   2.89941      2.707225
   2.85969      2.715921
   2.81998      2.701133
   2.78026      2.684627
   2.74054      2.647312
   2.70082      2.605202
   2.66110      2.584624
   2.62139      2.588564
   2.58167      2.609823
   2.54195      2.603077
   2.50223      2.489632
   2.46251      2.291969
   2.42280      2.104354
   2.38308      1.975671
   2.34336      2.022513
   2.30364      2.052779
   2.26392      2.063187
   2.26392      2.063187
   2.22421      2.061726
   2.18449      2.057382
   2.14477      2.050398
   2.10505      2.041237
   2.06533      2.030757
   2.02562      2.022594
   1.98590      2.111612
   1.94618      2.173418
   1.90646      2.104591
   1.86674      2.217275
   1.82703      2.339369
   1.78731      2.460923
   1.74759      2.579279
   1.70787      2.693383
   1.66815      2.801303
   1.62844      2.891603
   1.58872      2.959023
   1.54900      3.000558
   1.50928      3.014355
   1.50928      3.014354
   1.46957      2.999710
   1.42985      2.957811
   1.39013      2.890245
   1.35041      2.800075
   1.31069      2.694193
   1.27097      2.581700
   1.23126      2.463867
   1.19154      2.342746
   1.15182      2.221058
   1.11210      2.107072
   1.07238      2.174097
   1.03267      2.107237
   0.99295      2.022600
   0.95323      2.031223
   0.91351      2.041749
   0.87379      2.050933
   0.83408      2.057931
   0.79436      2.062281
   0.75464      2.063744
   0.75464      2.063744
   0.71492      2.053337
   0.67520      2.023071
   0.63549      1.976208
   0.59577      2.109742
   0.55605      2.297199
   0.51633      2.494597
   0.47662      2.599852
   0.43690      2.610155
   0.39718      2.588775
   0.35746      2.584808
   0.31774      2.605397
   0.27803      2.647274
   0.23831      2.685167
   0.19859      2.701652
   0.15887      2.715211
   0.11915      2.707039
   0.07944      2.691416
   0.03972      2.677433
   0.00000      2.669631
 
# Band-Index:   53
   0.00000      3.151602
   0.03972      3.140935
   0.07944      3.080741
   0.11915      2.964081
   0.15887      2.833985
   0.19859      2.747030
   0.23831      2.718574
   0.27803      2.688166
   0.31774      2.666664
   0.35746      2.651290
   0.39718      2.642988
   0.43690      2.649224
   0.47662      2.639084
   0.51633      2.552318
   0.55605      2.607867
   0.59577      2.659258
   0.63549      2.698698
   0.67520      2.724565
   0.71492      2.739582
   0.75464      2.744581
   0.75464      2.744580
   0.79436      2.771236
   0.83408      2.784218
   0.87379      2.739809
   0.91351      2.666737
   0.95323      2.565995
   0.99295      2.429322
   1.03267      2.285654
   1.07238      2.196390
   1.11210      2.325437
   1.15182      2.491701
   1.19154      2.652912
   1.23126      2.807136
   1.27097      2.951607
   1.31069      3.081955
   1.35041      3.196416
   1.39013      3.294832
   1.42985      3.373486
   1.46957      3.426003
   1.50928      3.445812
   1.50928      3.445786
   1.54900      3.426124
   1.58872      3.373850
   1.62844      3.295469
   1.66815      3.197244
   1.70787      3.082433
   1.74759      2.951090
   1.78731      2.806102
   1.82703      2.651636
   1.86674      2.490278
   1.90646      2.323928
   1.94618      2.196883
   1.98590      2.285862
   2.02562      2.429555
   2.06533      2.565815
   2.10505      2.666557
   2.14477      2.739635
   2.18449      2.784046
   2.22421      2.771003
   2.26392      2.744364
   2.26392      2.744367
   2.30364      2.739359
   2.34336      2.724305
   2.38308      2.698406
   2.42280      2.659004
   2.46251      2.607704
   2.50223      2.552198
   2.54195      2.639384
   2.58167      2.648972
   2.62139      2.642433
   2.66110      2.650136
   2.70082      2.666044
   2.74054      2.690310
   2.78026      2.718709
   2.81998      2.747263
   2.85969      2.834193
   2.89941      2.964270
   2.93913      3.080772
   2.97885      3.140566
   3.01857      3.151906
 
# Band-Index:   54
   3.01857      3.152416
   2.97885      3.161697
   2.93913      3.161816
   2.89941      3.100572
   2.85969      2.993484
   2.81998      2.882093
   2.78026      2.799745
   2.74054      2.764093
   2.70082      2.749322
   2.66110      2.745379
   2.62139      2.753729
   2.58167      2.773939
   2.54195      2.687228
   2.50223      2.657152
   2.46251      2.681202
   2.42280      2.711112
   2.38308      2.746182
   2.34336      2.780437
   2.30364      2.804589
   2.26392      2.813186
   2.26392      2.813186
   2.22421      2.806609
   2.18449      2.846273
   2.14477      2.867994
   2.10505      2.734023
   2.06533      2.582429
   2.02562      2.447706
   1.98590      2.325489
   1.94618      2.262308
   1.90646      2.401926
   1.86674      2.548651
   1.82703      2.693526
   1.78731      2.833718
   1.74759      2.967411
   1.70787      3.093889
   1.66815      3.210172
   1.62844      3.308879
   1.58872      3.384059
   1.54900      3.431019
   1.50928      3.445961
   1.50928      3.445942
   1.46957      3.431085
   1.42985      3.384234
   1.39013      3.309145
   1.35041      3.210413
   1.31069      3.093539
   1.27097      2.965783
   1.23126      2.831257
   1.19154      2.690484
   1.15182      2.545115
   1.11210      2.397978
   1.07238      2.258626
   1.03267      2.325618
   0.99295      2.447879
   0.95323      2.582180
   0.91351      2.733762
   0.87379      2.867744
   0.83408      2.846619
   0.79436      2.806775
   0.75464      2.813349
   0.75464      2.813349
   0.71492      2.804742
   0.67520      2.780563
   0.63549      2.746293
   0.59577      2.711254
   0.55605      2.681494
   0.51633      2.657562
   0.47662      2.687833
   0.43690      2.772870
   0.39718      2.752888
   0.35746      2.744548
   0.31774      2.748560
   0.27803      2.763151
   0.23831      2.799520
   0.19859      2.882084
   0.15887      2.992885
   0.11915      3.100442
   0.07944      3.160730
   0.03972      3.161711
   0.00000      3.152303
 
# Band-Index:   55
   0.00000      3.284016
   0.03972      3.268281
   0.07944      3.267502
   0.11915      3.301322
   0.15887      3.321322
   0.19859      3.321635
   0.23831      3.326254
   0.27803      3.330004
   0.31774      3.330116
   0.35746      3.251560
   0.39718      3.047719
   0.43690      2.835426
   0.47662      2.701567
   0.51633      2.742784
   0.55605      2.809131
   0.59577      2.876239
   0.63549      2.937302
   0.67520      2.986368
   0.71492      3.018320
   0.75464      3.029425
   0.75464      3.029426
   0.79436      3.014991
   0.83408      2.964617
   0.87379      2.958621
   0.91351      3.093466
   0.95323      3.237978
   0.99295      3.294485
   1.03267      3.310760
   1.07238      3.343792
   1.11210      3.389908
   1.15182      3.446460
   1.19154      3.511281
   1.23126      3.582123
   1.27097      3.656350
   1.31069      3.730713
   1.35041      3.801273
   1.39013      3.863514
   1.42985      3.912613
   1.46957      3.944250
   1.50928      3.955390
   1.50928      3.955342
   1.54900      3.944064
   1.58872      3.912331
   1.62844      3.863189
   1.66815      3.800937
   1.70787      3.730364
   1.74759      3.655996
   1.78731      3.581768
   1.82703      3.510924
   1.86674      3.446105
   1.90646      3.389552
   1.94618      3.343434
   1.98590      3.310397
   2.02562      3.294105
   2.06533      3.237725
   2.10505      3.093185
   2.14477      2.958347
   2.18449      2.964846
   2.22421      3.015197
   2.26392      3.029624
   2.26392      3.029625
   2.30364      3.018511
   2.34336      2.986535
   2.38308      2.937433
   2.42280      2.876326
   2.46251      2.809172
   2.50223      2.742772
   2.54195      2.697144
   2.58167      2.839805
   2.62139      3.051910
   2.66110      3.254811
   2.70082      3.330801
   2.74054      3.330850
   2.78026      3.326451
   2.81998      3.324924
   2.85969      3.319491
   2.89941      3.302644
   2.93913      3.269020
   2.97885      3.266541
   3.01857      3.284473
 
# Band-Index:   56
   3.01857      3.284745
   2.97885      3.286995
   2.93913      3.294858
   2.89941      3.338160
   2.85969      3.424792
   2.81998      3.477210
   2.78026      3.484301
   2.74054      3.494031
   2.70082      3.466540
   2.66110      3.302438
   2.62139      3.108741
   2.58167      2.905472
   2.54195      2.822180
   2.50223      2.872728
   2.46251      2.934827
   2.42280      3.001727
   2.38308      3.068379
   2.34336      3.127021
   2.30364      3.168463
   2.26392      3.183619
   2.26392      3.183604
   2.22421      3.203427
   2.18449      3.261889
   2.14477      3.307510
   2.10505      3.298382
   2.06533      3.300935
   2.02562      3.322446
   1.98590      3.357308
   1.94618      3.398166
   1.90646      3.445901
   1.86674      3.499965
   1.82703      3.559530
   1.78731      3.623340
   1.74759      3.689583
   1.70787      3.755753
   1.66815      3.818578
   1.62844      3.874113
   1.58872      3.918024
   1.54900      3.946220
   1.50928      3.955676
   1.50928      3.955637
   1.46957      3.946038
   1.42985      3.917745
   1.39013      3.873798
   1.35041      3.818248
   1.31069      3.755415
   1.27097      3.689241
   1.23126      3.622996
   1.19154      3.559191
   1.15182      3.499632
   1.11210      3.445576
   1.07238      3.397847
   1.03267      3.356997
   0.99295      3.322099
   0.95323      3.301307
   0.91351      3.298032
   0.87379      3.307113
   0.83408      3.259655
   0.79436      3.204651
   0.75464      3.183317
   0.75464      3.182913
   0.71492      3.170641
   0.67520      3.126280
   0.63549      3.067607
   0.59577      3.000913
   0.55605      2.933711
   0.51633      2.871901
   0.47662      2.822400
   0.43690      2.909900
   0.39718      3.112848
   0.35746      3.306389
   0.31774      3.465566
   0.27803      3.487954
   0.23831      3.484804
   0.19859      3.477636
   0.15887      3.423799
   0.11915      3.338594
   0.07944      3.294113
   0.03972      3.287093
   0.00000      3.284900
 
# Band-Index:   57
   0.00000      3.491674
   0.03972      3.463302
   0.07944      3.407372
   0.11915      3.391455
   0.15887      3.451705
   0.19859      3.546340
   0.23831      3.666931
   0.27803      3.665014
   0.31774      3.486920
   0.35746      3.372597
   0.39718      3.364295
   0.43690      3.369520
   0.47662      3.377144
   0.51633      3.383224
   0.55605      3.389725
   0.59577      3.395427
   0.63549      3.400116
   0.67520      3.403598
   0.71492      3.405730
   0.75464      3.406452
   0.75464      3.406454
   0.79436      3.385540
   0.83408      3.341472
   0.87379      3.347124
   0.91351      3.335290
   0.95323      3.310780
   0.99295      3.402282
   1.03267      3.550626
   1.07238      3.695841
   1.11210      3.833228
   1.15182      3.960404
   1.19154      4.075413
   1.23126      4.175674
   1.27097      4.256875
   1.31069      4.309108
   1.35041      4.301177
   1.39013      4.260017
   1.42985      4.215665
   1.46957      4.181936
   1.50928      4.167976
   1.50928      4.167975
   1.54900      4.180595
   1.58872      4.214179
   1.62844      4.258337
   1.66815      4.299421
   1.70787      4.309848
   1.74759      4.257429
   1.78731      4.175923
   1.82703      4.075470
   1.86674      3.960355
   1.90646      3.833088
   1.94618      3.695651
   1.98590      3.550405
   2.02562      3.402648
   2.06533      3.311059
   2.10505      3.334868
   2.14477      3.347614
   2.18449      3.342247
   2.22421      3.386094
   2.26392      3.407026
   2.26392      3.407032
   2.30364      3.406307
   2.34336      3.404169
   2.38308      3.400692
   2.42280      3.396020
   2.46251      3.390297
   2.50223      3.383796
   2.54195      3.376875
   2.58167      3.370187
   2.62139      3.364826
   2.66110      3.372716
   2.70082      3.486383
   2.74054      3.668715
   2.78026      3.666280
   2.81998      3.545914
   2.85969      3.451277
   2.89941      3.391635
   2.93913      3.409117
   2.97885      3.463889
   3.01857      3.492346
 
# Band-Index:   58
   3.01857      3.494341
   2.97885      3.488627
   2.93913      3.484790
   2.89941      3.484037
   2.85969      3.492714
   2.81998      3.564073
   2.78026      3.678829
   2.74054      3.734042
   2.70082      3.552403
   2.66110      3.517573
   2.62139      3.520865
   2.58167      3.527558
   2.54195      3.534183
   2.50223      3.541056
   2.46251      3.547667
   2.42280      3.552967
   2.38308      3.557407
   2.34336      3.560563
   2.30364      3.562371
   2.26392      3.562946
   2.26392      3.562933
   2.22421      3.538003
   2.18449      3.474316
   2.14477      3.398906
   2.10505      3.457932
   2.06533      3.578897
   2.02562      3.704464
   1.98590      3.827352
   1.94618      3.943793
   1.90646      4.050386
   1.86674      4.144560
   1.82703      4.223542
   1.78731      4.283389
   1.74759      4.318663
   1.70787      4.324777
   1.66815      4.318668
   1.62844      4.277765
   1.58872      4.224016
   1.54900      4.183844
   1.50928      4.169238
   1.50928      4.169238
   1.46957      4.182531
   1.42985      4.222597
   1.39013      4.276165
   1.35041      4.317101
   1.31069      4.326024
   1.27097      4.319880
   1.23126      4.284255
   1.19154      4.224104
   1.15182      4.144910
   1.11210      4.050579
   1.07238      3.943865
   1.03267      3.827308
   0.99295      3.704035
   0.95323      3.578624
   0.91351      3.457556
   0.87379      3.399370
   0.83408      3.474840
   0.79436      3.538675
   0.75464      3.563510
   0.75464      3.563504
   0.71492      3.563741
   0.67520      3.561365
   0.63549      3.557988
   0.59577      3.553547
   0.55605      3.548013
   0.51633      3.541639
   0.47662      3.536520
   0.43690      3.527804
   0.39718      3.521456
   0.35746      3.518360
   0.31774      3.554188
   0.27803      3.708789
   0.23831      3.683274
   0.19859      3.564031
   0.15887      3.491325
   0.11915      3.484912
   0.07944      3.484581
   0.03972      3.489724
   0.00000      3.493191
 
# Band-Index:   59
   0.00000      3.666274
   0.03972      3.675397
   0.07944      3.699885
   0.11915      3.745444
   0.15887      3.779357
   0.19859      3.842631
   0.23831      3.860963
   0.27803      3.798443
   0.31774      3.885567
   0.35746      3.940952
   0.39718      3.977243
   0.43690      3.997971
   0.47662      4.006921
   0.51633      3.988049
   0.55605      3.964260
   0.59577      3.930667
   0.63549      3.892015
   0.67520      3.854031
   0.71492      3.825485
   0.75464      3.814620
   0.75464      3.814634
   0.79436      3.827389
   0.83408      3.864814
   0.87379      3.923980
   0.91351      4.001726
   0.95323      4.093383
   0.99295      4.192972
   1.03267      4.293521
   1.07238      4.387312
   1.11210      4.468383
   1.15182      4.531282
   1.19154      4.575550
   1.23126      4.602271
   1.27097      4.613868
   1.31069      4.613462
   1.35041      4.577907
   1.39013      4.569819
   1.42985      4.581457
   1.46957      4.593691
   1.50928      4.596689
   1.50928      4.596665
   1.54900      4.592059
   1.58872      4.580898
   1.62844      4.569301
   1.66815      4.577458
   1.70787      4.613309
   1.74759      4.614106
   1.78731      4.602549
   1.82703      4.576080
   1.86674      4.531904
   1.90646      4.469212
   1.94618      4.388236
   1.98590      4.294395
   2.02562      4.194079
   2.06533      4.094579
   2.10505      4.003058
   2.14477      3.925273
   2.18449      3.866097
   2.22421      3.828776
   2.26392      3.816012
   2.26392      3.816027
   2.30364      3.826811
   2.34336      3.855352
   2.38308      3.893150
   2.42280      3.932972
   2.46251      3.965394
   2.50223      3.989398
   2.54195      4.002295
   2.58167      4.001796
   2.62139      3.979314
   2.66110      3.939842
   2.70082      3.881876
   2.74054      3.803280
   2.78026      3.849005
   2.81998      3.863179
   2.85969      3.782293
   2.89941      3.732991
   2.93913      3.704292
   2.97885      3.675492
   3.01857      3.667838
 
# Band-Index:   60
   3.01857      3.681247
   2.97885      3.725920
   2.93913      3.820357
   2.89941      3.760491
   2.85969      3.889093
   2.81998      3.913625
   2.78026      3.880271
   2.74054      3.811647
   2.70082      3.894220
   2.66110      3.971238
   2.62139      4.025924
   2.58167      4.067276
   2.54195      4.094536
   2.50223      4.111905
   2.46251      4.121349
   2.42280      4.124654
   2.38308      4.124408
   2.34336      4.122151
   2.30364      4.120045
   2.26392      4.119338
   2.26392      4.119198
   2.22421      4.131137
   2.18449      4.166197
   2.14477      4.222371
   2.10505      4.296919
   2.06533      4.385839
   2.02562      4.483662
   1.98590      4.582469
   1.94618      4.674518
   1.90646      4.751900
   1.86674      4.808726
   1.82703      4.842730
   1.78731      4.849423
   1.74759      4.741353
   1.70787      4.639253
   1.66815      4.611380
   1.62844      4.605184
   1.58872      4.600771
   1.54900      4.598141
   1.50928      4.596871
   1.50928      4.596862
   1.46957      4.596600
   1.42985      4.600370
   1.39013      4.604855
   1.35041      4.611073
   1.31069      4.638763
   1.27097      4.740755
   1.23126      4.848585
   1.19154      4.844421
   1.15182      4.809608
   1.11210      4.753122
   1.07238      4.675880
   1.03267      4.583671
   0.99295      4.484728
   0.95323      4.387376
   0.91351      4.298500
   0.87379      4.223912
   0.83408      4.167802
   0.79436      4.132892
   0.75464      4.120855
   0.75464      4.120836
   0.71492      4.121680
   0.67520      4.123860
   0.63549      4.125990
   0.59577      4.126134
   0.55605      4.123571
   0.51633      4.114204
   0.47662      4.098779
   0.43690      4.068215
   0.39718      4.027134
   0.35746      3.971366
   0.31774      3.901471
   0.27803      3.807157
   0.23831      3.908493
   0.19859      3.907167
   0.15887      3.844810
   0.11915      3.776356
   0.07944      3.709295
   0.03972      3.686776
   0.00000      3.667749
 
# Band-Index:   61
   0.00000      4.416829
   0.03972      4.445152
   0.07944      4.510994
   0.11915      4.443845
   0.15887      4.223438
   0.19859      4.065933
   0.23831      4.023923
   0.27803      4.077846
   0.31774      4.278323
   0.35746      4.443410
   0.39718      4.575914
   0.43690      4.720056
   0.47662      4.859468
   0.51633      4.949424
   0.55605      5.049184
   0.59577      5.116988
   0.63549      5.186225
   0.67520      5.235186
   0.71492      5.278013
   0.75464      5.266974
   0.75464      5.266729
   0.79436      5.307580
   0.83408      5.448698
   0.87379      5.430127
   0.91351      5.460038
   0.95323      5.468782
   0.99295      5.505740
   1.03267      5.500328
   1.07238      5.426849
   1.11210      5.306229
   1.15182      5.164125
   1.19154      5.016490
   1.23126      4.883323
   1.27097      4.860854
   1.31069      4.836173
   1.35041      4.811357
   1.39013      4.804559
   1.42985      4.805878
   1.46957      4.808852
   1.50928      4.810338
   1.50928      4.810178
   1.54900      4.809509
   1.58872      4.806411
   1.62844      4.805066
   1.66815      4.811858
   1.70787      4.836413
   1.74759      4.860911
   1.78731      4.882560
   1.82703      5.017117
   1.86674      5.165309
   1.90646      5.309016
   1.94618      5.427060
   1.98590      5.508234
   2.02562      5.573825
   2.06533      5.507902
   2.10505      5.479139
   2.14477      5.474460
   2.18449      5.357519
   2.22421      5.306578
   2.26392      5.263059
   2.26392      5.282428
   2.30364      5.272350
   2.34336      5.233830
   2.38308      5.180305
   2.42280      5.122042
   2.46251      5.038969
   2.50223      4.955508
   2.54195      4.840596
   2.58167      4.719330
   2.62139      4.580553
   2.66110      4.391173
   2.70082      4.224107
   2.74054      4.098141
   2.78026      3.984450
   2.81998      4.068366
   2.85969      4.229340
   2.89941      4.599514
   2.93913      4.516027
   2.97885      4.444537
   3.01857      4.416384
 
# Band-Index:   62
   3.01857      4.419513
   2.97885      4.453303
   2.93913      4.538815
   2.89941      4.623118
   2.85969      4.668383
   2.81998      4.379670
   2.78026      4.055642
   2.74054      4.655716
   2.70082      4.315039
   2.66110      4.586636
   2.62139      4.665608
   2.58167      4.853991
   2.54195      5.003299
   2.50223      5.125534
   2.46251      5.244716
   2.42280      5.324414
   2.38308      5.364678
   2.34336      5.377444
   2.30364      5.456809
   2.26392      5.374841
   2.26392      5.317784
   2.22421      5.364043
   2.18449      5.477745
   2.14477      5.610984
   2.10505      5.563286
   2.06533      5.616524
   2.02562      5.913320
   1.98590      5.595246
   1.94618      5.508812
   1.90646      5.376401
   1.86674      5.239313
   1.82703      5.107719
   1.78731      4.991766
   1.74759      4.901278
   1.70787      4.857682
   1.66815      4.842237
   1.62844      4.829165
   1.58872      4.818912
   1.54900      4.812242
   1.50928      4.810600
   1.50928      4.810455
   1.46957      4.812815
   1.42985      4.819396
   1.39013      4.829648
   1.35041      4.842754
   1.31069      4.858180
   1.27097      4.902021
   1.23126      4.992276
   1.19154      5.108405
   1.15182      5.240402
   1.11210      5.376051
   1.07238      5.500211
   1.03267      5.591212
   0.99295      5.617916
   0.95323      5.609438
   0.91351      5.591835
   0.87379      5.559165
   0.83408      5.478882
   0.79436      5.373902
   0.75464      5.323741
   0.75464      5.316654
   0.71492      5.357870
   0.67520      5.366055
   0.63549      5.357163
   0.59577      5.318581
   0.55605      5.224669
   0.51633      5.135809
   0.47662      5.030101
   0.43690      4.861132
   0.39718      4.720364
   0.35746      4.535072
   0.31774      4.479100
   0.27803      4.164590
   0.23831      4.376926
   0.19859      4.411005
   0.15887      4.635548
   0.11915      4.585191
   0.07944      4.525830
   0.03972      4.450199
   0.00000      4.417928
 
# Band-Index:   63
   0.00000      4.930575
   0.03972      5.006017
   0.07944      4.647008
   0.11915      4.621287
   0.15887      4.722844
   0.19859      4.785356
   0.23831      4.906480
   0.27803      4.966528
   0.31774      5.066764
   0.35746      5.162909
   0.39718      5.261838
   0.43690      5.441822
   0.47662      5.442820
   0.51633      5.506534
   0.55605      5.502279
   0.59577      5.448490
   0.63549      5.457313
   0.67520      5.499842
   0.71492      5.549212
   0.75464      5.539350
   0.75464      5.568579
   0.79436      5.617418
   0.83408      5.743092
   0.87379      5.770818
   0.91351      6.068341
   0.95323      6.110787
   0.99295      6.125234
   1.03267      6.155235
   1.07238      6.194304
   1.11210      6.243711
   1.15182      6.298567
   1.19154      6.347092
   1.23126      6.403307
   1.27097      6.456926
   1.31069      6.520281
   1.35041      6.580560
   1.39013      6.643931
   1.42985      6.704057
   1.46957      6.740124
   1.50928      6.759252
   1.50928      6.749254
   1.54900      6.736809
   1.58872      6.700235
   1.62844      6.643992
   1.66815      6.584285
   1.70787      6.518894
   1.74759      6.458910
   1.78731      6.406709
   1.82703      6.348646
   1.86674      6.301628
   1.90646      6.257516
   1.94618      6.195513
   1.98590      6.145003
   2.02562      6.127122
   2.06533      6.116482
   2.10505      6.102202
   2.14477      5.764213
   2.18449      5.814291
   2.22421      5.563159
   2.26392      5.453464
   2.26392      5.567529
   2.30364      5.545255
   2.34336      5.464242
   2.38308      5.469884
   2.42280      5.481306
   2.46251      5.502143
   2.50223      5.499092
   2.54195      5.448780
   2.58167      5.350972
   2.62139      5.318709
   2.66110      5.152384
   2.70082      5.061561
   2.74054      4.996920
   2.78026      4.865730
   2.81998      4.826463
   2.85969      4.708964
   2.89941      4.960611
   2.93913      5.020514
   2.97885      4.688046
   3.01857      4.986375
 
# Band-Index:   64
   3.01857      5.016429
   2.97885      5.003119
   2.93913      5.061642
   2.89941      5.015646
   2.85969      5.010907
   2.81998      5.065070
   2.78026      4.921570
   2.74054      5.176251
   2.70082      5.110289
   2.66110      5.375161
   2.62139      5.384600
   2.58167      5.446944
   2.54195      5.583663
   2.50223      5.634843
   2.46251      5.786098
   2.42280      5.646248
   2.38308      5.516588
   2.34336      5.546535
   2.30364      5.692949
   2.26392      5.977203
   2.26392      5.581745
   2.22421      5.644893
   2.18449      6.084229
   2.14477      5.991382
   2.10505      6.115178
   2.06533      6.123173
   2.02562      6.176815
   1.98590      6.186592
   1.94618      6.218982
   1.90646      6.263920
   1.86674      6.310111
   1.82703      6.363970
   1.78731      6.418856
   1.74759      6.467722
   1.70787      6.531263
   1.66815      6.617174
   1.62844      6.651820
   1.58872      6.722974
   1.54900      6.744183
   1.50928      6.813451
   1.50928      6.823877
   1.46957      6.798707
   1.42985      6.714002
   1.39013      6.656791
   1.35041      6.606806
   1.31069      6.524925
   1.27097      6.483409
   1.23126      6.419683
   1.19154      6.371112
   1.15182      6.311878
   1.11210      6.263346
   1.07238      6.217642
   1.03267      6.178844
   0.99295      6.146455
   0.95323      6.128656
   0.91351      6.114510
   0.87379      6.088946
   0.83408      5.896541
   0.79436      6.095841
   0.75464      5.762403
   0.75464      5.679917
   0.71492      6.021931
   0.67520      5.886694
   0.63549      5.500255
   0.59577      5.562725
   0.55605      5.548891
   0.51633      5.612678
   0.47662      5.530628
   0.43690      5.516032
   0.39718      5.414793
   0.35746      5.258780
   0.31774      5.257128
   0.27803      5.023107
   0.23831      5.027695
   0.19859      4.954477
   0.15887      5.099680
   0.11915      4.827258
   0.07944      4.917364
   0.03972      5.014721
   0.00000      5.012640
